ENLIGHTEN Version,2.1.14
Measurement ID,20200528-135723-541620-WP-00413,20200528-135733-845197-WP-00413
Serial Number,WP-00413,WP-00413
Model,WP-785-C-ER2-S,WP-785-C-ER2-S
Label,13:57:23 WP-00413,13:57:33 WP-00413
Declared Match,,
Declared Score,0,0
Scan Averaging,1,1
Boxcar,0,0
Technique,Raman,Raman
Baseline Correction Algo,,
ROI Pixel Start,10,10
ROI Pixel End,950,950
Slit Width,25,25
Vignetted,False,False
Interpolated,False,False
Raman Intensity Corrected,False,False
Integration Time,8,8
Timestamp,2020-05-28 13:57:23.541620,2020-05-28 13:57:33.845197
Note,,
Temperature,-15.223068295308622,-15.118761658262883
CCD C0,792.331787109375,792.331787109375
CCD C1,0.27772772312164307,0.27772772312164307
CCD C2,1.696601430012379e-05,1.696601430012379e-05
CCD C3,-2.4665144593427613e-08,-2.4665144593427613e-08
CCD Offset,300,300
CCD Gain,1.9,1.9
Laser Wavelength,785.0,785.0
Laser Enable,False,False
Laser Power,100,100
Laser Temperature,0,0
Pixel Count,1024,1024

WP-00413,13:57:23 WP-00413,13:57:33 WP-00413
Wavelength,Processed,Processed
792.33,1196.00,1133.00
792.61,1196.00,1141.00
792.89,1184.00,1148.00
793.17,1205.00,1148.00
793.44,1205.00,1161.00
793.72,1211.00,1152.00
794.00,1215.00,1131.00
794.28,1230.00,1150.00
794.55,1213.00,1161.00
794.83,1243.00,1180.00
795.11,1207.00,1159.00
795.39,1216.00,1156.00
795.67,1209.00,1144.00
795.95,1209.00,1158.00
796.22,1224.00,1161.00
796.50,1232.00,1152.00
796.78,1220.00,1165.00
797.06,1241.00,1171.00
797.34,1245.00,1182.00
797.61,1241.00,1175.00
797.89,1254.00,1178.00
798.17,1253.00,1169.00
798.45,1258.00,1188.00
798.73,1247.00,1169.00
799.01,1260.00,1173.00
799.29,1232.00,1177.00
799.56,1234.00,1148.00
799.84,1232.00,1161.00
800.12,1237.00,1188.00
800.40,1226.00,1182.00
800.68,1239.00,1175.00
800.96,1237.00,1175.00
801.24,1251.00,1173.00
801.51,1247.00,1182.00
801.79,1243.00,1186.00
802.07,1254.00,1177.00
802.35,1235.00,1188.00
802.63,1243.00,1180.00
802.91,1254.00,1194.00
803.19,1264.00,1196.00
803.47,1260.00,1194.00
803.75,1251.00,1201.00
804.02,1234.00,1190.00
804.30,1245.00,1177.00
804.58,1245.00,1194.00
804.86,1268.00,1186.00
805.14,1268.00,1186.00
805.42,1283.00,1211.00
805.70,1245.00,1196.00
805.98,1275.00,1201.00
806.26,1277.00,1211.00
806.54,1264.00,1215.00
806.82,1262.00,1224.00
807.10,1285.00,1201.00
807.37,1270.00,1213.00
807.65,1273.00,1205.00
807.93,1290.00,1201.00
808.21,1266.00,1199.00
808.49,1290.00,1213.00
808.77,1256.00,1190.00
809.05,1258.00,1192.00
809.33,1245.00,1186.00
809.61,1254.00,1201.00
809.89,1254.00,1211.00
810.17,1281.00,1199.00
810.45,1251.00,1197.00
810.73,1260.00,1192.00
811.01,1241.00,1194.00
811.29,1277.00,1207.00
811.57,1292.00,1199.00
811.85,1249.00,1180.00
812.13,1258.00,1190.00
812.41,1266.00,1190.00
812.69,1237.00,1184.00
812.97,1209.00,1156.00
813.25,1205.00,1152.00
813.53,1216.00,1141.00
813.81,1205.00,1158.00
814.09,1196.00,1144.00
814.37,1180.00,1131.00
814.65,1201.00,1125.00
814.93,1178.00,1129.00
815.21,1184.00,1129.00
815.49,1192.00,1139.00
815.77,1154.00,1097.00
816.05,1144.00,1093.00
816.33,1169.00,1108.00
816.61,1190.00,1131.00
816.89,1216.00,1144.00
817.17,1184.00,1144.00
817.45,1158.00,1106.00
817.73,1180.00,1106.00
818.01,1175.00,1148.00
818.29,1201.00,1133.00
818.57,1199.00,1137.00
818.85,1184.00,1125.00
819.13,1201.00,1131.00
819.41,1175.00,1131.00
819.69,1205.00,1152.00
819.97,1266.00,1180.00
820.25,1258.00,1213.00
820.53,1289.00,1218.00
820.81,1253.00,1182.00
821.09,1266.00,1188.00
821.37,1254.00,1186.00
821.65,1232.00,1169.00
821.93,1213.00,1159.00
822.21,1154.00,1085.00
822.49,1085.00,1034.00
822.77,1110.00,1066.00
823.05,1173.00,1142.00
823.33,1213.00,1177.00
823.62,1249.00,1182.00
823.90,1243.00,1186.00
824.18,1275.00,1199.00
824.46,1296.00,1237.00
824.74,1287.00,1209.00
825.02,1279.00,1218.00
825.30,1251.00,1194.00
825.58,1254.00,1197.00
825.86,1277.00,1207.00
826.14,1289.00,1237.00
826.42,1287.00,1251.00
826.70,1262.00,1209.00
826.98,1243.00,1169.00
827.26,1232.00,1163.00
827.55,1216.00,1163.00
827.83,1237.00,1186.00
828.11,1260.00,1190.00
828.39,1234.00,1175.00
828.67,1226.00,1180.00
828.95,1241.00,1175.00
829.23,1251.00,1188.00
829.51,1251.00,1220.00
829.79,1245.00,1194.00
830.07,1239.00,1188.00
830.35,1268.00,1205.00
830.64,1283.00,1228.00
830.92,1279.00,1215.00
831.20,1258.00,1203.00
831.48,1243.00,1213.00
831.76,1235.00,1192.00
832.04,1268.00,1213.00
832.32,1287.00,1211.00
832.60,1273.00,1213.00
832.88,1258.00,1194.00
833.16,1243.00,1199.00
833.45,1260.00,1196.00
833.73,1279.00,1216.00
834.01,1281.00,1232.00
834.29,1287.00,1230.00
834.57,1275.00,1249.00
834.85,1308.00,1235.00
835.13,1304.00,1249.00
835.41,1285.00,1241.00
835.70,1302.00,1256.00
835.98,1308.00,1241.00
836.26,1304.00,1245.00
836.54,1323.00,1264.00
836.82,1336.00,1264.00
837.10,1325.00,1254.00
837.38,1294.00,1251.00
837.66,1311.00,1249.00
837.95,1328.00,1266.00
838.23,1298.00,1235.00
838.51,1304.00,1245.00
838.79,1313.00,1260.00
839.07,1334.00,1258.00
839.35,1323.00,1264.00
839.63,1328.00,1273.00
839.91,1325.00,1266.00
840.20,1342.00,1268.00
840.48,1328.00,1272.00
840.76,1342.00,1251.00
841.04,1336.00,1268.00
841.32,1346.00,1268.00
841.60,1325.00,1281.00
841.88,1346.00,1260.00
842.17,1359.00,1277.00
842.45,1325.00,1281.00
842.73,1321.00,1270.00
843.01,1334.00,1249.00
843.29,1313.00,1262.00
843.57,1330.00,1256.00
843.85,1328.00,1251.00
844.14,1330.00,1264.00
844.42,1330.00,1270.00
844.70,1346.00,1294.00
844.98,1346.00,1277.00
845.26,1357.00,1279.00
845.54,1357.00,1283.00
845.82,1328.00,1294.00
846.11,1353.00,1285.00
846.39,1327.00,1277.00
846.67,1353.00,1279.00
846.95,1353.00,1270.00
847.23,1374.00,1268.00
847.51,1338.00,1287.00
847.80,1338.00,1287.00
848.08,1346.00,1264.00
848.36,1372.00,1260.00
848.64,1344.00,1275.00
848.92,1321.00,1266.00
849.20,1272.00,1224.00
849.48,1243.00,1201.00
849.77,1283.00,1196.00
850.05,1328.00,1272.00
850.33,1346.00,1262.00
850.61,1340.00,1285.00
850.89,1321.00,1270.00
851.17,1323.00,1270.00
851.46,1346.00,1272.00
851.74,1344.00,1273.00
852.02,1334.00,1275.00
852.30,1349.00,1281.00
852.58,1330.00,1275.00
852.86,1323.00,1249.00
853.15,1309.00,1235.00
853.43,1232.00,1184.00
853.71,1148.00,1127.00
853.99,1169.00,1118.00
854.27,1220.00,1192.00
854.55,1304.00,1237.00
854.84,1300.00,1264.00
855.12,1323.00,1254.00
855.40,1332.00,1268.00
855.68,1334.00,1283.00
855.96,1338.00,1289.00
856.24,1353.00,1289.00
856.52,1353.00,1270.00
856.81,1334.00,1302.00
857.09,1351.00,1277.00
857.37,1365.00,1273.00
857.65,1342.00,1270.00
857.93,1330.00,1289.00
858.21,1342.00,1283.00
858.50,1334.00,1256.00
858.78,1347.00,1287.00
859.06,1353.00,1266.00
859.34,1330.00,1254.00
859.62,1327.00,1264.00
859.90,1336.00,1279.00
860.19,1332.00,1277.00
860.47,1336.00,1281.00
860.75,1328.00,1289.00
861.03,1340.00,1275.00
861.31,1347.00,1277.00
861.59,1340.00,1283.00
861.88,1340.00,1289.00
862.16,1370.00,1279.00
862.44,1355.00,1285.00
862.72,1349.00,1268.00
863.00,1334.00,1258.00
863.28,1340.00,1272.00
863.57,1336.00,1283.00
863.85,1351.00,1273.00
864.13,1328.00,1260.00
864.41,1313.00,1251.00
864.69,1319.00,1266.00
864.97,1304.00,1264.00
865.25,1300.00,1253.00
865.54,1232.00,1167.00
865.82,1178.00,1129.00
866.10,1235.00,1167.00
866.38,1298.00,1216.00
866.66,1330.00,1254.00
866.94,1315.00,1258.00
867.23,1309.00,1260.00
867.51,1336.00,1272.00
867.79,1334.00,1275.00
868.07,1315.00,1266.00
868.35,1306.00,1241.00
868.63,1300.00,1222.00
868.91,1313.00,1272.00
869.20,1311.00,1253.00
869.48,1319.00,1279.00
869.76,1330.00,1266.00
870.04,1327.00,1270.00
870.32,1328.00,1281.00
870.60,1298.00,1251.00
870.88,1304.00,1262.00
871.17,1327.00,1262.00
871.45,1321.00,1272.00
871.73,1344.00,1279.00
872.01,1313.00,1290.00
872.29,1334.00,1245.00
872.57,1315.00,1268.00
872.85,1327.00,1260.00
873.14,1294.00,1256.00
873.42,1298.00,1256.00
873.70,1304.00,1232.00
873.98,1319.00,1241.00
874.26,1306.00,1256.00
874.54,1308.00,1237.00
874.82,1298.00,1254.00
875.10,1308.00,1245.00
875.39,1327.00,1262.00
875.67,1317.00,1251.00
875.95,1300.00,1262.00
876.23,1309.00,1232.00
876.51,1319.00,1264.00
876.79,1311.00,1253.00
877.07,1292.00,1247.00
877.35,1328.00,1253.00
877.64,1308.00,1268.00
877.92,1309.00,1266.00
878.20,1321.00,1260.00
878.48,1298.00,1254.00
878.76,1304.00,1243.00
879.04,1317.00,1253.00
879.32,1296.00,1245.00
879.60,1306.00,1232.00
879.89,1289.00,1234.00
880.17,1260.00,1205.00
880.45,1270.00,1199.00
880.73,1290.00,1228.00
881.01,1304.00,1249.00
881.29,1302.00,1253.00
881.57,1302.00,1247.00
881.85,1292.00,1243.00
882.13,1287.00,1239.00
882.41,1300.00,1258.00
882.70,1300.00,1241.00
882.98,1309.00,1247.00
883.26,1290.00,1245.00
883.54,1302.00,1243.00
883.82,1292.00,1241.00
884.10,1294.00,1241.00
884.38,1290.00,1237.00
884.66,1294.00,1237.00
884.94,1289.00,1241.00
885.22,1272.00,1218.00
885.50,1272.00,1218.00
885.79,1253.00,1218.00
886.07,1254.00,1209.00
886.35,1262.00,1224.00
886.63,1273.00,1224.00
886.91,1270.00,1218.00
887.19,1256.00,1215.00
887.47,1292.00,1216.00
887.75,1290.00,1232.00
888.03,1270.00,1228.00
888.31,1273.00,1230.00
888.59,1272.00,1235.00
888.87,1281.00,1232.00
889.15,1262.00,1220.00
889.44,1272.00,1222.00
889.72,1266.00,1218.00
890.00,1256.00,1228.00
890.28,1247.00,1201.00
890.56,1258.00,1218.00
890.84,1253.00,1199.00
891.12,1258.00,1194.00
891.40,1247.00,1196.00
891.68,1249.00,1190.00
891.96,1247.00,1211.00
892.24,1222.00,1171.00
892.52,1234.00,1186.00
892.80,1235.00,1169.00
893.08,1237.00,1192.00
893.36,1232.00,1201.00
893.64,1220.00,1177.00
893.92,1203.00,1159.00
894.20,1209.00,1158.00
894.48,1178.00,1161.00
894.76,1180.00,1142.00
895.04,1178.00,1133.00
895.32,1178.00,1135.00
895.60,1165.00,1123.00
895.88,1146.00,1087.00
896.16,1135.00,1093.00
896.44,1120.00,1097.00
896.72,1112.00,1082.00
897.00,1116.00,1095.00
897.28,1150.00,1099.00
897.56,1137.00,1112.00
897.84,1148.00,1080.00
898.12,1087.00,1061.00
898.40,1044.00,1010.00
898.68,1042.00,1021.00
898.96,1106.00,1085.00
899.24,1125.00,1093.00
899.52,1112.00,1068.00
899.80,1078.00,1047.00
900.08,1085.00,1049.00
900.36,1087.00,1059.00
900.64,1091.00,1072.00
900.92,1080.00,1053.00
901.20,1076.00,1055.00
901.48,1091.00,1074.00
901.76,1101.00,1057.00
902.04,1093.00,1063.00
902.32,1099.00,1080.00
902.60,1146.00,1099.00
902.88,1137.00,1110.00
903.16,1175.00,1127.00
903.44,1163.00,1141.00
903.72,1163.00,1131.00
904.00,1161.00,1129.00
904.28,1178.00,1129.00
904.56,1158.00,1156.00
904.84,1175.00,1106.00
905.12,1161.00,1133.00
905.40,1125.00,1101.00
905.68,1120.00,1099.00
905.96,1108.00,1084.00
906.24,1099.00,1076.00
906.51,1082.00,1061.00
906.79,1074.00,1044.00
907.07,1072.00,1070.00
907.35,1082.00,1042.00
907.63,1070.00,1040.00
907.91,1080.00,1044.00
908.19,1053.00,1055.00
908.47,1061.00,1034.00
908.75,1044.00,1047.00
909.03,1063.00,1038.00
909.31,1061.00,1046.00
909.58,1078.00,1051.00
909.86,1070.00,1038.00
910.14,1072.00,1029.00
910.42,1070.00,1047.00
910.70,1095.00,1080.00
910.98,1118.00,1074.00
911.26,1065.00,1049.00
911.54,1087.00,1055.00
911.82,1093.00,1068.00
912.09,1095.00,1049.00
912.37,1061.00,1027.00
912.65,1027.00,1010.00
912.93,1011.00,1000.00
913.21,1023.00,992.00
913.49,1059.00,1036.00
913.77,1084.00,1068.00
914.04,1080.00,1074.00
914.32,1076.00,1055.00
914.60,1046.00,1013.00
914.88,994.00,992.00
915.16,1006.00,996.00
915.44,1061.00,1013.00
915.72,1068.00,1049.00
915.99,1078.00,1057.00
916.27,1076.00,1049.00
916.55,1044.00,1027.00
916.83,1032.00,996.00
917.11,1027.00,998.00
917.38,1032.00,1017.00
917.66,1042.00,1042.00
917.94,1066.00,1040.00
918.22,1082.00,1042.00
918.50,1103.00,1059.00
918.78,1070.00,1053.00
919.05,1087.00,1057.00
919.33,1093.00,1087.00
919.61,1101.00,1065.00
919.89,1118.00,1070.00
920.16,1095.00,1059.00
920.44,1091.00,1074.00
920.72,1078.00,1038.00
921.00,1053.00,1046.00
921.28,1055.00,1055.00
921.55,1074.00,1049.00
921.83,1076.00,1038.00
922.11,1082.00,1065.00
922.39,1057.00,1044.00
922.66,1066.00,1038.00
922.94,1053.00,1038.00
923.22,1053.00,1034.00
923.50,1044.00,1032.00
923.77,1053.00,1029.00
924.05,1061.00,1038.00
924.33,1059.00,1017.00
924.61,1036.00,1046.00
924.88,1063.00,1040.00
925.16,1057.00,1032.00
925.44,1061.00,1023.00
925.71,1049.00,1040.00
925.99,1070.00,1042.00
926.27,1074.00,1046.00
926.55,1057.00,1030.00
926.82,1053.00,1038.00
927.10,1010.00,992.00
927.38,1000.00,981.00
927.65,975.00,977.00
927.93,975.00,958.00
928.21,981.00,949.00
928.48,987.00,951.00
928.76,958.00,949.00
929.04,970.00,943.00
929.31,928.00,913.00
929.59,916.00,890.00
929.87,930.00,911.00
930.14,903.00,899.00
930.42,898.00,888.00
930.70,894.00,877.00
930.97,873.00,867.00
931.25,842.00,844.00
931.53,822.00,827.00
931.80,825.00,812.00
932.08,833.00,839.00
932.35,820.00,816.00
932.63,827.00,831.00
932.91,795.00,803.00
933.18,784.00,787.00
933.46,778.00,780.00
933.73,768.00,765.00
934.01,786.00,774.00
934.29,806.00,806.00
934.56,820.00,827.00
934.84,816.00,814.00
935.11,799.00,793.00
935.39,808.00,793.00
935.67,806.00,804.00
935.94,820.00,803.00
936.22,808.00,808.00
936.49,795.00,795.00
936.77,801.00,797.00
937.04,818.00,791.00
937.32,797.00,795.00
937.59,803.00,799.00
937.87,822.00,820.00
938.15,854.00,841.00
938.42,879.00,875.00
938.70,896.00,892.00
938.97,911.00,901.00
939.25,909.00,886.00
939.52,898.00,896.00
939.80,877.00,877.00
940.07,892.00,867.00
940.35,861.00,852.00
940.62,860.00,865.00
940.90,860.00,858.00
941.17,875.00,865.00
941.45,863.00,860.00
941.72,865.00,860.00
942.00,848.00,835.00
942.27,810.00,806.00
942.54,822.00,822.00
942.82,825.00,833.00
943.09,852.00,837.00
943.37,827.00,810.00
943.64,799.00,793.00
943.92,799.00,801.00
944.19,837.00,818.00
944.47,858.00,841.00
944.74,854.00,837.00
945.01,820.00,816.00
945.29,812.00,825.00
945.56,810.00,808.00
945.84,825.00,812.00
946.11,823.00,823.00
946.38,837.00,841.00
946.66,848.00,823.00
946.93,844.00,842.00
947.21,831.00,829.00
947.48,829.00,810.00
947.75,829.00,814.00
948.03,841.00,831.00
948.30,839.00,875.00
948.57,858.00,852.00
948.85,833.00,842.00
949.12,795.00,804.00
949.40,795.00,803.00
949.67,814.00,816.00
949.94,825.00,825.00
950.22,848.00,860.00
950.49,871.00,875.00
950.76,886.00,860.00
951.03,844.00,842.00
951.31,816.00,827.00
951.58,803.00,793.00
951.85,799.00,803.00
952.13,804.00,820.00
952.40,827.00,827.00
952.67,837.00,837.00
952.95,856.00,852.00
953.22,833.00,841.00
953.49,825.00,841.00
953.76,833.00,835.00
954.04,818.00,827.00
954.31,808.00,823.00
954.58,831.00,823.00
954.85,812.00,816.00
955.13,818.00,816.00
955.40,810.00,812.00
955.67,827.00,825.00
955.94,827.00,814.00
956.22,803.00,812.00
956.49,808.00,827.00
956.76,842.00,839.00
957.03,841.00,877.00
957.30,848.00,850.00
957.58,841.00,850.00
957.85,833.00,835.00
958.12,823.00,831.00
958.39,816.00,818.00
958.66,803.00,812.00
958.93,806.00,814.00
959.21,816.00,823.00
959.48,827.00,831.00
959.75,841.00,844.00
960.02,831.00,848.00
960.29,831.00,833.00
960.56,835.00,844.00
960.83,850.00,844.00
961.11,846.00,860.00
961.38,852.00,841.00
961.65,825.00,844.00
961.92,829.00,831.00
962.19,825.00,833.00
962.46,844.00,848.00
962.73,850.00,860.00
963.00,848.00,858.00
963.27,848.00,850.00
963.54,831.00,835.00
963.81,829.00,837.00
964.08,841.00,839.00
964.36,844.00,837.00
964.63,839.00,863.00
964.90,858.00,860.00
965.17,848.00,858.00
965.44,842.00,842.00
965.71,816.00,842.00
965.98,844.00,839.00
966.25,854.00,850.00
966.52,852.00,856.00
966.79,863.00,863.00
967.06,877.00,875.00
967.33,873.00,879.00
967.60,877.00,879.00
967.87,861.00,879.00
968.14,869.00,871.00
968.41,875.00,879.00
968.68,865.00,880.00
968.95,879.00,873.00
969.21,884.00,873.00
969.48,865.00,884.00
969.75,867.00,865.00
970.02,877.00,871.00
970.29,884.00,896.00
970.56,882.00,880.00
970.83,860.00,886.00
971.10,877.00,877.00
971.37,867.00,869.00
971.64,871.00,884.00
971.91,861.00,852.00
972.17,875.00,856.00
972.44,856.00,867.00
972.71,865.00,867.00
972.98,858.00,856.00
973.25,835.00,844.00
973.52,833.00,852.00
973.79,850.00,850.00
974.05,844.00,842.00
974.32,848.00,856.00
974.59,863.00,865.00
974.86,831.00,856.00
975.13,831.00,831.00
975.40,842.00,844.00
975.66,841.00,854.00
975.93,846.00,852.00
976.20,842.00,841.00
976.47,848.00,877.00
976.73,842.00,860.00
977.00,861.00,879.00
977.27,846.00,852.00
977.54,837.00,863.00
977.81,852.00,850.00
978.07,839.00,856.00
978.34,850.00,848.00
978.61,842.00,865.00
978.87,835.00,850.00
979.14,846.00,842.00
979.41,856.00,852.00
979.68,839.00,852.00
979.94,844.00,846.00
980.21,852.00,860.00
980.48,854.00,875.00
980.74,860.00,858.00
981.01,841.00,852.00
981.28,861.00,854.00
981.54,861.00,858.00
981.81,852.00,867.00
982.08,842.00,867.00
982.34,846.00,863.00
982.61,863.00,865.00
982.87,848.00,867.00
983.14,846.00,871.00
983.41,867.00,858.00
983.67,854.00,854.00
983.94,842.00,873.00
984.20,852.00,848.00
984.47,863.00,856.00
984.74,856.00,861.00
985.00,841.00,867.00
985.27,844.00,856.00
985.53,854.00,856.00
985.80,846.00,852.00
986.06,844.00,867.00
986.33,850.00,867.00
986.59,856.00,854.00
986.86,844.00,854.00
987.12,837.00,856.00
987.39,858.00,867.00
987.65,846.00,852.00
987.92,841.00,860.00
988.18,854.00,848.00
988.45,844.00,842.00
988.71,846.00,860.00
988.98,842.00,850.00
989.24,835.00,856.00
989.51,839.00,854.00
989.77,854.00,848.00
990.04,854.00,844.00
990.30,856.00,850.00
990.56,844.00,852.00
990.83,848.00,854.00
991.09,842.00,848.00
991.36,848.00,850.00
991.62,837.00,850.00
991.88,846.00,841.00
992.15,839.00,846.00
992.41,829.00,854.00
992.68,835.00,846.00
992.94,839.00,825.00
993.20,839.00,852.00
993.47,827.00,848.00
993.73,829.00,841.00
993.99,833.00,841.00
994.26,846.00,844.00
994.52,833.00,850.00
994.78,850.00,848.00
995.05,827.00,844.00
995.31,837.00,831.00
995.57,827.00,839.00
995.83,833.00,850.00
996.10,841.00,841.00
996.36,837.00,841.00
996.62,835.00,842.00
996.88,816.00,837.00
997.15,827.00,837.00
997.41,827.00,837.00
997.67,835.00,823.00
997.93,818.00,833.00
998.19,820.00,825.00
998.46,825.00,835.00
998.72,833.00,822.00
998.98,827.00,823.00
999.24,822.00,835.00
999.50,833.00,823.00
999.77,820.00,818.00
1000.03,820.00,841.00
1000.29,827.00,827.00
1000.55,823.00,823.00
1000.81,835.00,816.00
1001.07,823.00,820.00
1001.33,820.00,816.00
1001.59,822.00,822.00
1001.86,812.00,810.00
1002.12,818.00,831.00
1002.38,816.00,825.00
1002.64,810.00,820.00
1002.90,814.00,812.00
1003.16,814.00,810.00
1003.42,818.00,810.00
1003.68,823.00,801.00
1003.94,810.00,816.00
1004.20,820.00,818.00
1004.46,808.00,799.00
1004.72,812.00,795.00
1004.98,801.00,803.00
1005.24,816.00,804.00
1005.50,806.00,801.00
1005.76,810.00,812.00
1006.02,803.00,801.00
1006.28,804.00,810.00
1006.54,804.00,801.00
1006.80,803.00,808.00
1007.06,801.00,825.00
1007.32,804.00,801.00
1007.58,812.00,799.00
1007.84,799.00,797.00
1008.09,808.00,808.00
1008.35,803.00,795.00
1008.61,804.00,799.00
1008.87,799.00,810.00
1009.13,804.00,799.00
1009.39,810.00,784.00
1009.65,801.00,806.00
1009.91,793.00,806.00
1010.16,806.00,791.00
1010.42,801.00,801.00
1010.68,795.00,803.00
1010.94,782.00,795.00
1011.20,787.00,791.00
1011.46,806.00,797.00
1011.71,795.00,784.00
1011.97,789.00,789.00
1012.23,789.00,799.00
1012.49,801.00,789.00
1012.74,795.00,797.00
1013.00,799.00,786.00
1013.26,795.00,804.00
1013.52,814.00,786.00
1013.77,803.00,797.00
1014.03,808.00,797.00
1014.29,784.00,789.00
1014.54,793.00,786.00
1014.80,782.00,786.00
1015.06,784.00,778.00
1015.31,780.00,786.00
1015.57,791.00,780.00
1015.83,787.00,789.00
1016.08,774.00,782.00
1016.34,789.00,776.00
1016.60,784.00,787.00
1016.85,786.00,786.00
1017.11,780.00,782.00
1017.37,782.00,778.00
1017.62,772.00,780.00
1017.88,787.00,776.00
1018.13,770.00,784.00
1018.39,776.00,770.00
1018.64,772.00,772.00
1018.90,784.00,763.00
1019.15,778.00,778.00
1019.41,774.00,768.00
1019.67,763.00,768.00
1019.92,778.00,761.00
1020.18,772.00,774.00
1020.43,768.00,770.00
1020.69,757.00,767.00
1020.94,767.00,759.00
1021.19,778.00,767.00
1021.45,770.00,768.00
1021.70,751.00,768.00
1021.96,774.00,765.00
1022.21,782.00,770.00
1022.47,772.00,770.00
1022.72,768.00,765.00
1022.98,759.00,761.00
1023.23,768.00,767.00
1023.48,763.00,757.00
1023.74,770.00,770.00
1023.99,768.00,755.00
1024.24,761.00,757.00
1024.50,755.00,767.00
1024.75,759.00,761.00
1025.00,757.00,763.00
1025.26,770.00,748.00
1025.51,770.00,748.00
1025.76,746.00,757.00
1026.02,753.00,763.00
1026.27,749.00,753.00
1026.52,761.00,767.00
1026.78,755.00,761.00
1027.03,763.00,755.00
1027.28,746.00,748.00
1027.53,746.00,740.00
1027.79,751.00,759.00
1028.04,751.00,748.00
1028.29,757.00,751.00
1028.54,759.00,753.00
1028.79,753.00,753.00
1029.05,742.00,742.00
1029.30,755.00,753.00
1029.55,746.00,753.00
1029.80,755.00,746.00
1030.05,742.00,749.00
1030.30,751.00,759.00
1030.55,748.00,751.00
1030.81,755.00,746.00
1031.06,759.00,730.00
1031.31,748.00,748.00
1031.56,746.00,742.00
1031.81,746.00,751.00
1032.06,742.00,738.00
1032.31,742.00,748.00
1032.56,738.00,742.00
1032.81,744.00,740.00
1033.06,736.00,742.00
1033.31,730.00,744.00
1033.56,746.00,732.00
1033.81,738.00,734.00
1034.06,734.00,738.00
1034.31,736.00,729.00
1034.56,723.00,732.00
1034.81,748.00,715.00
1035.06,736.00,736.00
1035.31,727.00,744.00
1035.56,753.00,732.00
1035.81,729.00,732.00
1036.06,732.00,729.00
1036.31,732.00,729.00
1036.56,742.00,729.00
1036.81,730.00,730.00
1037.05,736.00,727.00
1037.30,729.00,727.00
1037.55,730.00,719.00
1037.80,732.00,729.00
1038.05,734.00,730.00
1038.30,734.00,719.00
1038.54,730.00,734.00
1038.79,727.00,729.00
1039.04,734.00,715.00
1039.29,727.00,721.00
1039.54,729.00,721.00
1039.78,721.00,729.00
1040.03,715.00,711.00
1040.28,719.00,723.00
1040.53,721.00,721.00
1040.77,729.00,711.00
1041.02,719.00,710.00
1041.27,721.00,727.00
1041.52,719.00,710.00
1041.76,727.00,729.00
1042.01,725.00,708.00
1042.26,723.00,715.00
1042.50,721.00,710.00
1042.75,713.00,715.00
1042.99,717.00,725.00
1043.24,729.00,723.00
1043.49,725.00,715.00
1043.73,734.00,713.00
1043.98,708.00,713.00
1044.23,711.00,706.00
1044.47,713.00,717.00
1044.72,715.00,719.00
1044.96,723.00,715.00
1045.21,717.00,708.00
1045.45,713.00,711.00
1045.70,708.00,710.00
1045.94,710.00,715.00
1046.19,711.00,710.00
1046.43,719.00,721.00
1046.68,696.00,698.00
1046.92,713.00,702.00
1047.17,706.00,708.00
1047.41,708.00,713.00
1047.66,715.00,694.00
1047.90,711.00,710.00
1048.14,713.00,700.00
1048.39,704.00,706.00
1048.63,696.00,702.00
1048.88,715.00,700.00
1049.12,713.00,717.00
1049.36,702.00,702.00
1049.61,706.00,696.00
1049.85,698.00,706.00
1050.09,700.00,708.00
1050.34,694.00,702.00
1050.58,700.00,702.00
1050.82,696.00,696.00
1051.07,702.00,706.00
1051.31,700.00,692.00
1051.55,704.00,700.00
1051.79,692.00,702.00
1052.04,696.00,708.00
1052.28,692.00,700.00
1052.52,702.00,698.00
1052.76,694.00,691.00
1053.01,704.00,711.00
1053.25,691.00,689.00
1053.49,687.00,696.00
1053.73,700.00,700.00
1053.97,708.00,696.00
1054.21,715.00,692.00
1054.46,689.00,691.00
1054.70,696.00,704.00
1054.94,694.00,694.00
1055.18,698.00,689.00
1055.42,694.00,683.00
1055.66,710.00,696.00
1055.90,694.00,692.00
1056.14,694.00,691.00
1056.38,687.00,694.00
1056.62,696.00,687.00
1056.86,698.00,681.00
1057.10,681.00,687.00
1057.34,694.00,694.00
1057.58,696.00,698.00
1057.82,689.00,677.00
1058.06,691.00,687.00
1058.30,687.00,687.00
1058.54,681.00,696.00
1058.78,692.00,681.00
1059.02,679.00,696.00
1059.26,681.00,687.00
1059.50,696.00,692.00
1059.74,694.00,685.00
1059.98,687.00,685.00
1060.22,694.00,689.00
1060.46,689.00,679.00
1060.69,687.00,673.00
1060.93,691.00,679.00
1061.17,694.00,694.00
1061.41,691.00,681.00
1061.65,685.00,679.00
1061.88,691.00,679.00
1062.12,681.00,687.00
1062.36,685.00,672.00
1062.60,683.00,681.00
1062.84,687.00,681.00
1063.07,692.00,681.00
1063.31,687.00,679.00
1063.55,681.00,685.00
1063.78,698.00,681.00
1064.02,679.00,691.00
1064.26,691.00,681.00
1064.49,683.00,692.00
1064.73,685.00,679.00
1064.97,672.00,681.00
1065.20,681.00,677.00
1065.44,691.00,675.00
1065.68,679.00,673.00
1065.91,679.00,683.00
1066.15,672.00,668.00
1066.38,673.00,675.00
1066.62,675.00,681.00
1066.86,681.00,673.00
1067.09,679.00,691.00
1067.33,689.00,668.00
1067.56,672.00,679.00
1067.80,679.00,672.00
