Jaz Data File
++++++++++++++++++++++++++++++++++++
Date: Mon Sep 17 15:00:27 2018
User: jaz
Dark Spectrum Present: Yes
Reference Spectrum Present: Yes
Processed Spectrum Present: Yes
Spectrometers: JAZA3098
Integration Time (usec): 232000 (JAZA3098)
Spectra Averaged: 20 (JAZA3098)
Boxcar Smoothing: 0 (JAZA3098)
Correct for Electrical Dark: No (JAZA3098)
Strobe/Lamp Enabled: Yes (JAZA3098)
Correct for Detector Non-linearity: No (JAZA3098)
Correct for Stray Light: No (JAZA3098)
Number of Pixels in Processed Spectrum: 2048
>>>>>Begin Processed Spectral Data<<<<<
W	D	R	S	P
190.313904	0.000000	0.000000	0.000000	0.000000
190.695511	0.000000	0.000000	0.000000	0.000000
191.077087	931.613953	922.574585	913.761414	197.497650
191.458633	937.941528	933.760742	923.365601	348.640839
191.840149	949.692566	965.172241	930.823059	-121.898598
192.221634	959.183777	945.285950	949.918579	66.666519
192.603088	975.228638	984.154968	974.324585	-10.127933
192.984528	1000.425598	1008.448059	985.623718	-184.505478
193.365921	995.792969	1019.521179	998.052917	9.524312
193.747284	988.222656	987.544617	977.149536	1633.108276
194.128616	988.109558	1000.086731	990.934387	23.585108
194.509918	992.629272	1016.244507	987.770630	-20.574188
194.891190	997.487976	1004.154480	981.104187	-245.762833
195.272446	994.663208	1002.572571	975.002625	-248.573547
195.653656	1029.125610	1043.475464	1016.696472	-86.615089
196.034836	1014.323608	1014.436646	989.578491	-21891.144531
196.416000	979.070435	991.838257	976.245483	-22.125551
196.797104	1010.707825	1010.255859	990.708374	4424.996582
197.178192	1007.431152	1025.509766	998.165894	-51.249832
197.559265	985.623718	1003.137512	974.889648	-61.289230
197.940292	971.161011	990.256470	970.821960	-1.775555
198.321304	975.906433	979.409363	966.189148	-277.404510
198.702271	979.748352	985.736816	967.432251	-205.663757
199.083221	983.477051	978.279419	976.584351	132.612320
199.464111	971.951965	967.997192	969.692017	57.144840
199.844986	977.714478	977.714478	981.443176	0.000000
200.225830	960.991821	986.188782	966.980286	23.766615
200.606659	962.912476	1007.318054	955.794067	-16.030437
200.987427	1012.063843	1080.988525	999.747742	-17.868927
201.368195	960.087708	998.956909	969.692078	24.709461
201.748917	984.832825	993.759277	976.132507	-97.466682
202.129608	964.268372	989.239563	965.059448	3.167957
202.510284	976.019531	998.617859	952.630371	-103.499519
202.890915	953.195190	1000.199829	944.608093	-18.268616
203.271515	972.064819	995.341003	952.178528	-85.436218
203.652100	970.596008	999.069702	963.816406	-23.810055
204.032623	969.692078	979.183289	935.003601	-365.479980
204.413147	961.895691	988.109680	946.641785	-58.189945
204.793625	970.708984	1001.216614	948.675659	-72.222343
205.174088	956.811035	986.075806	945.624817	-38.224178
205.554504	950.483398	972.403809	937.828308	-57.731995
205.934906	949.918457	974.550476	940.540222	-38.073349
206.315247	957.375854	973.759766	950.822388	-39.999405
206.695587	958.844849	992.629211	937.150574	-64.213951
207.075882	972.742859	986.527710	947.545776	-182.788208
207.456146	939.975281	971.725891	951.613464	36.654991
207.836380	965.737427	997.375000	966.867188	3.570946
208.216599	961.104614	995.679993	944.155945	-49.019478
208.596771	952.291504	966.980164	958.392883	41.538029
208.976913	973.420715	1000.086731	968.449219	-18.643568
209.357025	1026.300659	1039.746704	1013.306641	-96.638222
209.737106	963.703430	981.443054	974.550598	61.146549
210.117157	967.319214	987.883606	955.116211	-59.340450
210.497177	971.499817	966.415344	952.856445	366.672668
210.877167	968.336121	984.606934	956.810913	-70.833633
211.257126	967.771301	988.335632	947.771667	-97.253998
211.637070	992.629272	1016.922546	969.240112	-96.278336
212.016968	964.607422	1000.538757	936.924622	-77.043617
212.396835	965.285278	984.606934	954.890259	-53.799839
212.776672	959.409973	976.923645	924.269531	-200.645767
213.156464	962.799500	985.510925	944.946960	-78.605980
213.536255	945.850891	981.104187	925.964355	-56.410431
213.916000	962.912598	983.929016	962.573547	-1.613264
214.295700	956.924011	980.426270	945.737915	-47.595837
214.675400	965.172363	979.635254	962.799500	-16.406567
215.055038	945.624878	979.522339	938.845398	-19.999964
215.434662	975.002625	982.347046	953.647278	-290.769623
215.814240	992.742310	1020.086121	978.279297	-52.893185
216.193787	960.878723	1002.233582	944.720886	-39.071194
216.573334	980.087280	994.437134	969.014038	-77.166237
216.952820	965.963257	995.002075	949.127563	-57.976509
217.332275	953.421204	976.810547	953.308289	-0.482763
217.711716	967.771179	1001.216675	966.076355	-5.067421
218.091125	952.404297	988.335632	938.732300	-38.050346
218.470505	1018.165344	1050.367798	1005.849243	-38.245846
218.849854	958.166992	996.018921	953.647278	-11.940513
219.229156	970.595886	985.397827	969.014160	-10.685937
219.608444	959.522827	982.460144	957.488892	-8.867365
219.987671	998.391968	1023.023926	983.928894	-58.716705
220.366898	963.364624	1008.109009	976.584595	29.545542
220.746094	990.143433	1010.481934	991.612427	7.222726
221.125244	981.330200	1009.351868	986.188843	17.338877
221.504364	961.104797	998.165894	965.172363	10.975299
221.883469	944.269043	1004.719360	939.975403	-7.102758
222.262512	948.675781	997.261902	961.895630	27.209105
222.641556	954.551147	973.872864	934.212708	-105.262077
223.020554	940.992065	996.019043	945.511902	8.213856
223.399521	958.618774	997.600891	954.551147	-10.434597
223.778473	965.850403	982.799133	932.178894	-198.666855
224.157364	953.421265	986.075806	938.506348	-45.674862
224.536240	967.093140	967.545105	952.517456	-3224.956055
224.915085	951.387390	984.154968	927.772095	-72.069092
225.293900	971.499817	983.250977	953.760132	-150.961151
225.672684	970.595886	997.148926	957.037109	-51.062992
226.051437	970.369995	1005.962219	972.290833	5.396790
226.430161	938.506470	990.256470	938.506470	0.000000
226.808838	944.268921	997.600891	940.766113	-6.567932
227.187500	980.765137	1048.786011	992.968262	17.940266
227.566132	962.234680	1010.142883	952.291321	-20.755024
227.944717	969.240112	1019.521301	951.726379	-34.831581
228.323288	978.731262	1031.837280	964.607422	-26.595554
228.701813	951.839478	1022.458984	981.217102	41.599873
229.080307	953.986206	1021.894165	946.076843	-11.647181
229.458786	972.855835	1043.814331	972.290833	-0.796244
229.837234	957.489075	1041.893555	967.997253	12.449788
230.215637	945.285950	1037.938721	957.940918	13.658488
230.594009	949.692566	1062.344849	963.138550	11.935829
230.972351	942.009155	1049.915894	970.257019	26.178036
231.350662	969.014038	1039.972778	972.742981	5.255086
231.728958	938.054504	1049.125000	960.087708	19.837133
232.107193	966.641235	1053.644775	969.240112	2.987093
232.485413	952.065308	1036.469971	965.624207	16.064159
232.863602	1060.424072	1156.127808	1059.859253	-0.590175
233.241760	957.828003	1050.706787	972.516785	15.815002
233.619873	942.913208	1041.667603	963.477417	20.823589
233.997986	988.674683	1057.260376	985.736694	-4.283675
234.376038	968.223267	1055.113525	970.030945	2.080415
234.754074	966.641235	1070.254517	995.792969	28.135132
235.132065	958.844849	1044.605225	956.585083	-2.634976
235.510025	969.579102	1050.819824	982.686035	16.133453
235.887970	963.364563	1051.610962	951.387512	-13.572283
236.265869	971.499817	1051.045898	975.906616	5.539933
236.643738	967.093262	1058.842285	979.861206	13.916163
237.021576	950.483582	1064.491821	963.590332	11.496319
237.399384	941.896118	1054.322510	956.472046	12.964863
237.777161	969.918091	1086.637939	991.386414	18.393036
238.154892	954.890259	1066.525635	967.545227	11.335984
238.532623	956.923950	1080.875610	955.229187	-1.367278
238.910309	940.879211	1060.989136	951.726257	9.030932
239.287949	951.839355	1070.141479	951.500488	-0.286442
239.665573	947.319702	1071.384277	972.177856	20.036465
240.043167	960.313660	1081.101563	979.635254	15.996299
240.420715	955.003113	1090.705811	970.030945	11.074085
240.798233	965.172363	1088.671875	975.228638	8.142764
241.175735	966.528320	1097.033447	962.121704	-3.376585
241.553207	944.381958	1097.937256	948.449585	2.648966
241.930634	944.720825	1092.513672	950.370483	3.822687
242.308014	963.364563	1141.777832	974.663574	6.333055
242.685394	951.726379	1151.269165	994.550110	21.460926
243.062729	969.014160	1189.234375	982.347168	6.054398
243.440033	970.031067	1200.985596	981.104187	4.794502
243.817307	977.036499	1228.894287	1014.210632	14.759970
244.194534	971.161011	1214.318359	996.809937	10.548284
244.571747	982.346985	1238.046509	998.956848	6.495852
244.948929	960.652710	1230.137085	989.578491	10.733750
245.326065	965.172485	1192.398071	983.024902	7.856693
245.703186	979.974426	1227.312256	1000.651672	8.359921
246.080261	950.370605	1193.075928	972.290833	9.031622
246.457306	947.319702	1208.216797	983.364075	13.815552
246.834320	969.466125	1234.543701	1002.007629	12.276219
247.211304	968.901184	1268.780151	988.561646	6.556132
247.588257	972.064758	1307.197388	1004.380371	9.642634
247.965195	971.612976	1356.235596	1010.369019	10.076382
248.342087	945.850891	1386.743164	1018.391296	16.453091
248.718933	950.935547	1401.771240	998.843750	10.626533
249.095764	939.297241	1419.171631	1009.351929	14.598547
249.472549	955.794067	1411.262451	1027.543579	15.752907
249.849319	951.839478	1370.020508	998.391907	11.132124
250.226044	970.144043	1356.009521	1000.651733	7.906302
250.602737	954.212219	1328.439697	986.188965	8.544735
250.979401	965.285339	1295.785034	995.906067	9.264979
251.356033	979.409302	1306.519287	1016.583374	11.364395
251.732635	971.612976	1286.180908	1006.075378	10.955472
252.109207	967.658203	1280.757202	1005.397461	12.053458
252.485748	971.048035	1292.960327	1008.786987	11.723365
252.862244	949.127625	1293.751343	990.934448	12.131151
253.238724	962.347534	1301.660767	1014.097778	15.251467
253.615158	942.800110	1297.932129	994.776062	14.635671
253.991577	962.573608	1315.897705	988.900696	7.451257
254.367950	955.455078	1317.705566	982.234009	7.392379
254.744308	986.979797	1334.880127	1034.097168	13.543353
255.120621	956.359009	1302.338623	998.052856	12.050955
255.496902	958.505981	1272.395874	994.550110	11.483048
255.873154	953.195190	1272.734863	957.488892	1.343715
256.249390	946.867859	1259.514893	970.483032	7.553302
256.625549	956.697937	1287.762695	974.211731	5.290142
257.001709	992.403198	1324.598022	1018.052368	7.721123
257.377838	957.149902	1332.959229	1000.425659	11.515349
257.753937	955.568176	1321.095337	982.460083	7.357020
258.129974	949.353699	1330.134399	966.641235	4.540024
258.506012	941.895996	1374.766113	1005.849304	14.774249
258.881989	968.223145	1401.657959	1019.295288	11.783120
259.257935	962.799622	1420.527588	1010.707886	10.466537
259.633911	948.788696	1483.237915	1013.532715	12.114158
260.009766	960.087708	1530.016357	1018.278320	10.210157
260.385651	1006.188293	1620.296265	1049.915771	7.120487
260.761475	950.144409	1634.759521	1028.560425	11.454029
261.137299	962.121582	1704.135986	1042.119507	10.781182
261.513062	939.862305	1729.333008	1038.955688	12.551876
261.888763	995.454102	1758.823975	1062.909912	8.836583
262.264496	957.941040	1707.186768	1034.210083	10.179443
262.640137	962.912476	1668.091797	1036.921997	10.495135
263.015808	950.596558	1592.500488	1032.741089	12.797013
263.391388	988.335632	1595.438232	1045.509155	9.417440
263.766998	993.307251	1572.161987	1051.497925	10.052725
264.142517	977.940430	1549.789917	1045.170288	11.756565
264.518036	954.890137	1505.610229	993.194214	6.955271
264.893524	971.612915	1499.169678	1003.476440	6.039829
265.268951	983.815918	1536.004883	1028.560669	8.103159
265.644379	947.093628	1469.566040	997.261902	9.602091
266.019745	958.957886	1465.837280	997.601074	7.623744
266.395111	971.047852	1485.158813	992.403320	4.153864
266.770386	977.714355	1519.734131	1024.492798	8.630394
267.145691	963.816589	1529.790161	1004.380371	7.167080
267.520966	970.369995	1560.975830	1015.227661	7.595195
267.896149	978.505371	1593.404541	1032.063232	8.710023
268.271362	969.917969	1588.432861	1014.888672	7.270755
268.646515	943.139038	1600.974854	1010.708008	10.271403
269.021606	974.889771	1641.313110	1044.492310	10.444193
269.396729	959.296875	1639.730835	1022.346008	9.266018
269.771790	940.088196	1627.188965	1022.458984	11.988167
270.146790	941.218262	1647.188477	1011.385742	9.939156
270.521790	962.799622	1651.369141	1015.453735	7.646884
270.896759	965.624390	1659.730225	1021.103149	7.992839
271.271667	974.776550	1703.457764	1034.436157	8.187340
271.646545	948.449585	1716.225952	1026.978760	10.228131
272.021423	952.178528	1781.422119	1023.815063	8.638781
272.396271	940.653198	1819.726196	1027.995483	9.935726
272.771027	959.974792	1864.244751	1033.419189	8.121955
273.145813	963.025757	1906.390625	1056.017334	9.857435
273.520538	980.539185	1935.881226	1056.808350	7.983441
273.895233	978.279175	1930.683838	1042.006470	6.691199
274.269897	959.296875	1881.080322	1036.356934	8.359887
274.644501	966.302368	1844.810181	1023.814819	6.546607
275.019135	987.657593	1842.324219	1055.791504	7.971987
275.393677	949.692383	1814.867554	1002.459473	6.099007
275.768250	948.110535	1814.076416	1013.984741	7.607021
276.142700	932.630859	1816.336304	1022.233032	10.139371
276.517212	955.907043	1854.640625	1030.933350	8.348003
276.891632	962.686523	1859.273193	1028.221558	7.309392
277.266022	954.099304	1873.623047	1030.255371	8.282121
277.640381	954.890137	1922.548218	1024.944824	7.239612
278.014740	981.443176	1929.779541	1037.825928	5.945438
278.389038	955.794128	1957.349609	1038.616699	8.269394
278.763336	954.890259	1966.727905	1031.159302	7.537676
279.137543	944.608032	1958.140625	1027.543701	8.182832
279.511780	949.918579	1956.219482	1043.588623	9.308353
279.885925	954.325195	1977.236328	1050.255127	9.378130
280.260101	956.020020	1952.491455	1026.526855	7.075651
280.634186	966.415161	1990.230469	1058.955200	9.038743
281.008301	985.171875	2048.533691	1063.474854	7.363719
281.382294	956.132935	2043.901001	1039.633667	7.676336
281.756348	970.144043	2131.017334	1050.028931	6.881448
282.130280	943.591125	2177.682861	1050.706909	8.679726
282.504272	971.386902	2266.381348	1077.711792	8.210452
282.878143	955.681152	2271.013916	1058.503174	7.817187
283.252014	970.708862	2323.780762	1084.717163	8.425886
283.625854	1001.555542	2400.162598	1116.580933	8.224282
283.999664	968.675171	2376.095947	1065.169800	6.856132
284.373444	962.121460	2407.733643	1059.294189	6.721909
284.747192	963.929565	2369.429199	1071.158447	7.629236
285.120941	983.476929	2396.885986	1110.366333	8.977543
285.494629	936.472534	2404.569580	1071.497070	9.197248
285.868256	956.811035	2435.642334	1070.819336	7.709352
286.241882	982.234070	2489.990967	1078.841797	6.407381
286.615448	966.867188	2542.645020	1081.214600	7.256569
286.988983	938.958374	2560.158691	1069.463379	8.049900
287.362518	985.171997	2609.875000	1100.535889	7.100614
287.736023	962.686646	2639.930664	1095.564453	7.922390
288.109467	959.070923	2646.145020	1077.033936	6.992166
288.482880	973.985718	2634.394043	1091.835815	7.097658
288.856262	979.748230	2638.461426	1112.513062	8.004086
289.229584	976.923340	2594.508301	1089.575928	6.964245
289.602936	966.302429	2591.457275	1075.564697	6.723191
289.976227	991.612183	2607.163086	1079.971680	5.469311
290.349457	958.618958	2641.625488	1088.332886	7.707274
290.722687	958.279968	2656.427490	1072.175171	6.707026
291.095886	949.579590	2738.120117	1073.418213	6.924004
291.469025	979.635132	2819.812744	1089.236938	5.956045
291.842133	954.438171	2826.140381	1099.745117	7.763359
292.215240	969.805054	2885.460693	1094.434570	6.505841
292.588287	952.743286	2847.043457	1081.101563	6.776026
292.961304	944.608032	2851.111572	1079.293701	7.064538
293.334320	964.607544	2858.003662	1100.084106	7.155215
293.707245	955.455078	2837.100586	1073.418091	6.269141
294.080170	968.110168	2845.235840	1091.496704	6.573163
294.453064	940.540344	2910.318848	1089.575928	7.566109
294.825897	965.963257	2972.690186	1089.801880	6.171175
295.198730	935.229675	3035.513428	1106.185669	8.139662
295.571533	950.596375	3084.099854	1101.214111	7.059644
295.944275	957.150024	3153.476318	1116.919922	7.274416
296.317017	985.171753	3263.416992	1133.303589	6.502015
296.689697	965.285339	3318.444092	1116.807007	6.439075
297.062317	957.827942	3324.093262	1122.230469	6.947764
297.434967	977.375488	3395.843262	1142.794922	6.839844
297.807526	958.279785	3477.196533	1123.586304	6.562603
298.180115	946.189819	3553.014160	1127.427979	6.952450
298.552612	969.805054	3544.087402	1135.224487	6.425847
298.925110	951.952332	3584.990234	1148.444580	7.462568
299.297546	987.205566	3542.393066	1144.941772	6.173175
299.669983	953.421265	3482.281738	1113.416992	6.326792
300.042358	981.217163	3408.949951	1140.987061	6.581033
300.414734	960.991699	3351.211426	1110.592163	6.258858
300.787048	943.139038	3292.794434	1103.925781	6.842993
301.159332	954.776978	3256.863770	1109.462402	6.719357
301.531616	935.455750	3216.525879	1091.609741	6.845646
301.903809	964.268372	3213.474609	1104.151733	6.219232
302.276031	961.556641	3203.757568	1093.756592	5.895990
302.648163	948.675659	3195.961426	1107.202637	7.054153
303.020294	941.218140	3193.475098	1081.779541	6.240913
303.392395	958.618835	3203.418701	1091.722778	5.929435
303.764435	947.658691	3132.233887	1086.751221	6.367029
304.136444	948.336548	3137.092773	1080.988525	6.060610
304.508453	962.121704	3169.859863	1112.513062	6.812010
304.880371	995.228149	3147.035645	1109.123413	5.293004
305.252319	970.257019	3102.856445	1086.751221	5.462545
305.624207	987.431641	3121.161133	1121.213379	6.269855
305.996033	990.595398	3127.488525	1118.275757	5.975047
306.367859	960.878723	3114.494629	1097.937378	6.364118
306.739655	948.901672	3090.539795	1085.169189	6.362770
307.111389	949.240601	3152.572021	1100.197021	6.851280
307.483124	965.172363	3168.504395	1083.700317	5.379487
307.854828	972.177734	3201.271729	1117.597656	6.523723
308.226471	952.291321	3211.327637	1098.050293	6.452263
308.598083	964.833496	3287.145264	1072.514282	4.636793
308.969666	968.788208	3297.766357	1117.145752	6.370070
309.341187	975.115723	3373.583496	1104.490723	5.394069
309.712738	960.426636	3454.485596	1102.343872	5.690211
310.084167	963.364563	3470.869141	1103.586792	5.592103
310.455658	949.692383	3522.393311	1112.287231	6.320006
310.827057	970.257019	3602.842529	1118.162720	5.618268
311.198456	971.951782	3592.673828	1124.603149	5.824782
311.569794	960.991699	3566.233887	1114.547119	5.894094
311.941132	958.166870	3599.566406	1118.614502	6.074342
312.312408	948.336548	3599.792236	1111.948120	6.170632
312.683655	962.234558	3590.865967	1129.122925	6.348869
313.054840	969.805054	3567.250732	1119.744507	5.772573
313.426056	969.127136	3574.595215	1104.716797	5.204042
313.797180	986.075867	3601.374268	1140.196045	5.893025
314.168304	967.206177	3578.210938	1124.151245	6.010907
314.539368	930.709961	3542.618652	1085.847168	5.939610
314.910431	943.477905	3573.126465	1102.343872	6.041338
315.281433	951.274536	3629.283203	1117.484741	6.206485
315.652435	958.392761	3729.732422	1118.953491	5.793614
316.023346	959.748840	3740.805908	1098.615112	4.993291
316.394287	949.805481	3747.132813	1110.479248	5.743831
316.765137	976.019531	3750.071045	1131.156860	5.592446
317.135986	980.539246	3708.489746	1124.151367	5.264470
317.506775	959.522949	3634.593262	1089.236938	4.848994
317.877594	990.821472	3617.871094	1137.371216	5.578492
318.248291	973.759766	3555.499512	1122.117554	5.746427
318.619019	988.900513	3542.166748	1113.869019	4.894457
318.989655	977.488403	3600.244629	1133.303467	5.940890
319.360321	966.302368	3605.441895	1103.699829	5.206146
319.730896	965.172485	3634.367676	1112.400146	5.515807
320.101501	949.127625	3658.209473	1102.005005	5.643144
320.472015	955.455200	3685.213623	1106.185547	5.521747
320.842529	965.963379	3713.349121	1087.880981	4.437586
321.213013	969.917847	3683.744629	1097.485352	4.700650
321.583466	950.031616	3671.089844	1115.338013	6.075078
321.953827	938.393372	3633.915527	1113.303955	6.488931
322.324188	963.590515	3670.412109	1116.693970	5.656208
322.694519	946.302856	3691.428467	1093.756592	5.371475
323.064819	951.274414	3738.094238	1102.343872	5.420855
323.435059	972.855774	3831.312012	1146.862549	6.087439
323.805328	944.382019	3935.151123	1119.405518	5.852124
324.175507	970.369995	4039.780762	1130.704834	5.223636
324.545685	941.557251	4112.772949	1118.840698	5.590394
324.915802	949.466614	4261.356445	1120.309692	5.158477
325.285919	945.963989	4361.241211	1127.992920	5.329844
325.655975	950.822571	4397.624023	1129.122803	5.172918
326.025970	958.844727	4385.082031	1120.083618	4.706005
326.395966	953.082336	4352.993164	1131.043701	5.234295
326.765930	937.376587	4366.212891	1123.586304	5.430697
327.135864	960.087708	4349.942383	1130.817627	5.036497
327.505737	967.206360	4338.304199	1115.563843	4.400866
327.875580	958.279968	4238.758789	1122.908447	5.018428
328.245422	1018.504272	4227.458984	1161.890381	4.468312
328.615204	973.420776	4126.445313	1118.275635	4.594156
328.984955	963.364563	4062.492188	1102.457031	4.488117
329.354675	970.595886	4073.451904	1114.547119	4.639314
329.724365	961.217773	4022.266846	1116.128906	5.060720
330.093994	964.607544	4082.152832	1103.699707	4.461592
330.463623	965.624390	4103.733887	1116.241943	4.799627
330.833191	971.612915	4150.172852	1120.422607	4.681670
331.202759	949.805542	4217.403320	1112.852173	4.989801
331.572266	947.545715	4232.431152	1112.739014	5.028891
331.941711	944.156067	4291.751465	1121.552490	5.299219
332.311188	961.217651	4372.426758	1124.377319	4.783045
332.680573	959.635864	4416.041992	1116.919922	4.550508
333.049988	951.387512	4505.079590	1118.840576	4.712087
333.419312	981.217163	4595.923828	1155.223877	4.813855
333.788635	964.607422	4692.758301	1129.800781	4.430973
334.157867	954.325317	4821.229004	1142.681763	4.870989
334.527130	952.404419	4909.702148	1143.698853	4.833966
334.896332	993.646179	4962.242676	1157.709595	4.134041
335.265503	948.449585	4981.903320	1133.190674	4.580221
335.634613	959.522827	5009.699707	1145.280640	4.586412
336.003723	969.126953	4908.120117	1132.625610	4.150773
336.372772	1011.272827	4890.041504	1139.743896	3.312161
336.741821	957.602173	4831.624023	1119.970459	4.191207
337.110809	965.737183	4764.620605	1136.015259	4.482319
337.479797	981.217102	4736.373047	1143.020752	4.308840
337.848724	985.623840	4787.331543	1138.388306	4.018312
338.217590	975.115845	4819.194824	1126.975830	3.950491
338.586487	952.743347	4796.032227	1116.467651	4.260005
338.955292	974.776550	4859.420898	1135.111328	4.127399
339.324036	949.127563	4876.708008	1113.982178	4.197358
339.692841	958.618958	4912.186523	1140.196045	4.592740
340.061523	945.624878	4874.448242	1110.931274	4.207530
340.430237	965.624390	4906.764160	1132.851563	4.243117
340.798859	977.827454	4947.440430	1161.551270	4.628255
341.167511	960.878723	4947.327637	1143.698730	4.586037
341.536072	964.268433	4905.747070	1129.122925	4.182555
341.904663	951.048462	4958.513672	1139.969971	4.714240
342.273102	970.369934	4981.111816	1144.376709	4.338518
342.641632	993.081360	5023.370605	1172.624512	4.454845
343.010040	940.653198	5082.239258	1120.648560	4.346049
343.378510	965.850403	5152.293945	1141.777832	4.202312
343.746826	939.071411	5208.676758	1145.958496	4.845579
344.115204	967.997253	5281.217773	1156.127686	4.361716
344.483490	942.461060	5373.643555	1140.196045	4.462352
344.851776	964.720398	5493.979980	1150.591309	4.103781
345.220001	972.742798	5643.692871	1157.822632	3.962359
345.588196	961.895630	5663.467285	1156.692627	4.143231
345.956329	959.635925	5800.977051	1146.862549	3.867247
346.324524	954.438171	5824.253418	1152.738159	4.072022
346.692596	957.375977	5827.191895	1146.862549	3.891042
347.060669	1006.301147	5884.026367	1193.189087	3.831457
347.428680	963.251648	5768.774902	1150.478271	3.896071
347.796692	936.020508	5702.222168	1147.653442	4.440285
348.164612	960.652710	5647.421875	1142.568726	3.881480
348.532562	977.827515	5655.218262	1163.246338	3.964151
348.900421	996.810059	5597.141113	1194.996826	4.308098
349.268311	960.652832	5515.673828	1158.387573	4.341028
349.636108	985.397766	5632.506836	1155.788818	3.666603
350.003906	951.161438	5602.676758	1140.421997	4.068794
350.371643	968.787964	5657.591309	1162.116333	4.123192
350.739380	990.030579	5750.131836	1190.364380	4.208604
351.107025	952.630371	5829.451172	1159.969604	4.251524
351.474701	943.139038	5817.248047	1132.060547	3.876022
351.842285	953.534363	5887.641602	1139.405029	3.767058
352.209900	941.105164	5923.347168	1154.997803	4.293100
352.577393	966.076355	5957.244629	1193.640869	4.559343
352.944946	945.624817	5905.381348	1143.811768	3.995901
353.312378	965.511353	6058.258301	1164.376221	3.904864
353.679840	939.862305	6175.657227	1156.127686	4.130517
354.047211	962.686523	6382.317871	1170.816650	3.840301
354.414612	934.664673	6403.786133	1159.969482	4.119579
354.781891	931.613892	6626.493164	1169.121826	4.170553
355.149231	961.217773	6723.439941	1190.364258	3.976703
355.516449	959.183777	6841.627441	1202.567139	4.137453
355.883698	939.975281	6977.670410	1173.302490	3.864508
356.250854	966.641235	7146.140625	1197.482666	3.735601
356.618011	956.811035	7318.338867	1212.849365	4.024793
356.985168	940.540344	7436.980469	1181.324951	3.706409
357.352234	980.200317	7644.092773	1227.651367	3.713311
357.719269	948.788574	7890.301758	1219.629028	3.901749
358.086304	947.997681	8108.713379	1220.306885	3.802821
358.453278	944.946960	8361.701172	1217.030151	3.668494
358.820190	931.500854	8382.942383	1222.679688	3.907685
359.187103	936.585449	8562.373047	1238.611694	3.960591
359.554016	946.980774	8481.698242	1245.955933	3.967968
359.920837	943.478027	8523.730469	1221.436768	3.666880
360.287628	948.901550	8543.503906	1235.673584	3.775998
360.654388	945.963867	8615.706055	1221.436768	3.591684
361.021149	965.511414	8877.167969	1257.029175	3.684661
361.387848	978.279419	9182.920898	1277.028564	3.641221
361.754486	950.144531	9581.216797	1260.757813	3.598780
362.121124	953.421265	9984.595703	1271.153076	3.518167
362.487732	961.217651	10307.750977	1303.129639	3.658169
362.854279	941.105164	10341.196289	1289.118408	3.702233
363.220795	981.104126	10258.260742	1332.394287	3.786615
363.587311	971.499878	10048.662109	1294.429199	3.557602
363.953735	937.263489	9763.359375	1266.633423	3.731774
364.320160	953.873169	9381.334961	1252.396362	3.542267
364.686554	941.783203	8853.779297	1241.549072	3.788751
365.052887	937.715515	8587.910156	1226.634399	3.776621
365.419189	949.466614	8264.529297	1234.769775	3.900215
365.785492	940.427368	8101.255371	1208.442993	3.742802
366.151703	937.941406	8012.443848	1207.877930	3.815626
366.517944	975.454590	7980.920410	1228.668213	3.614515
366.884094	989.917603	7941.711914	1245.729980	3.679804
367.250214	958.618774	7869.059570	1210.024658	3.638058
367.616333	967.206238	7898.889160	1224.148682	3.706783
367.982361	984.832886	7876.177246	1211.945557	3.295622
368.348419	952.291321	7802.732910	1193.528076	3.521477
368.714386	951.952454	7794.484375	1194.883911	3.550315
369.080383	974.437683	7794.032715	1226.973389	3.703089
369.446289	1017.374390	7728.158691	1228.555420	3.146890
369.812195	990.256531	7651.550781	1229.346069	3.589235
370.178009	969.804993	7654.262695	1183.923584	3.203231
370.543854	956.359070	7746.350098	1190.703247	3.451318
370.909607	963.025574	7760.813477	1206.521973	3.581995
371.275360	953.647339	7794.936523	1207.990967	3.717773
371.641052	965.398315	7935.045410	1213.640381	3.561759
372.006744	963.251465	8000.242188	1217.708008	3.615985
372.372375	974.550598	8139.447754	1213.979248	3.341690
372.737976	964.268372	8120.689941	1199.064697	3.280918
373.103546	974.663574	8073.686035	1201.098389	3.189662
373.469055	956.811035	8147.921875	1204.262207	3.441070
373.834595	968.788208	8236.394531	1232.622925	3.630284
374.199982	972.177856	8187.693848	1221.888794	3.460749
374.565460	963.364441	8194.248047	1211.267456	3.428392
374.930817	933.082825	8363.396484	1222.566650	3.895984
375.296204	964.494507	8468.251953	1233.074951	3.579279
375.661499	944.156067	8549.945313	1227.990479	3.731821
376.026825	982.686035	8762.369141	1255.899170	3.511880
376.391998	947.206726	8890.500000	1233.300903	3.601707
376.757263	964.946289	9163.037109	1260.757568	3.608295
377.122406	939.523438	9378.396484	1240.871338	3.570950
377.487549	942.687134	9549.013672	1249.684692	3.567115
377.852631	945.511841	9806.183594	1249.797729	3.434118
378.217743	979.974304	10029.906250	1263.017700	3.127575
378.582764	960.200684	10016.685547	1270.249023	3.423496
378.947754	963.364441	9997.025391	1263.130615	3.318324
379.312714	964.268372	9804.713867	1275.785767	3.523775
379.677673	935.342590	9583.138672	1234.543823	3.459855
380.042542	962.799622	9340.431641	1237.481445	3.278753
380.407379	958.505981	9166.876953	1251.379517	3.567986
380.772186	957.036987	9118.517578	1223.244629	3.261757
381.136993	935.568665	9061.229492	1227.990234	3.598742
381.501740	937.602356	9035.695313	1238.159790	3.711459
381.866486	966.302368	9070.607422	1242.227295	3.404671
382.231110	961.330688	9082.472656	1227.990356	3.283524
382.595764	958.279785	9052.193359	1221.323975	3.249901
382.960327	942.009094	9033.887695	1223.018799	3.472738
383.324951	943.930054	9120.326172	1211.832642	3.276536
383.689453	953.873169	9220.096680	1238.159424	3.439131
384.053986	959.635864	9452.970703	1270.700928	3.662461
384.418396	956.471985	9526.642578	1249.345825	3.417363
384.782867	960.652710	9679.632813	1243.583130	3.244994
385.147217	976.358521	9861.548828	1283.582031	3.457703
385.511597	967.658081	9930.247070	1259.740967	3.258912
385.875885	948.449585	9981.884766	1254.882446	3.392207
386.240204	960.426758	9989.793945	1278.158447	3.518870
386.604401	955.907104	10013.974609	1268.215332	3.447846
386.968628	979.409363	10186.736328	1306.858154	3.556394
387.332764	942.799988	10237.922852	1252.509399	3.331956
387.696930	960.652649	10404.247070	1287.310791	3.459044
388.061005	992.968384	10416.336914	1326.067017	3.534815
388.425140	964.833374	10553.845703	1295.672119	3.450186
388.789124	964.720398	10582.208984	1311.490967	3.605625
389.153168	972.516907	10610.003906	1294.542236	3.341383
389.517090	941.783203	10624.580078	1284.937866	3.543962
389.881042	952.969360	10591.021484	1265.164551	3.239194
390.244873	945.398926	10596.558594	1285.051025	3.519288
390.608734	979.409180	10760.394531	1299.287842	3.270413
390.972534	948.449585	10857.002930	1281.887329	3.365150
391.336304	946.415833	10981.517578	1296.349976	3.487101
391.700043	955.003113	11125.471680	1295.785034	3.350700
392.063751	946.980774	11410.320313	1292.508423	3.302269
392.427399	929.128235	11550.544922	1293.864380	3.433969
392.791077	993.194214	11776.865234	1377.703857	3.565665
393.154663	961.556763	11674.382813	1320.304321	3.348767
393.518219	955.229126	11599.694336	1318.835327	3.415918
393.881744	955.003113	11488.625000	1300.078613	3.275944
394.245209	946.980835	11537.662109	1294.429443	3.280701
394.608704	930.484009	11510.996094	1300.756714	3.499573
394.972107	953.308411	11532.124023	1311.490845	3.385846
395.335480	964.494446	11603.197266	1322.790039	3.367850
395.698792	969.127075	11561.390625	1320.417236	3.316479
396.062103	1015.001587	11420.716797	1335.445068	3.079495
396.425385	960.087891	11170.554688	1293.638428	3.266751
396.788635	965.850403	11051.010742	1286.406860	3.178496
397.151825	957.601929	10920.166016	1263.695557	3.072438
397.514984	959.748840	10688.872070	1276.124634	3.251843
397.878113	977.714355	10623.789063	1286.632690	3.202529
398.241180	954.551147	10523.677734	1269.684082	3.293226
398.604248	965.850403	10495.318359	1266.407349	3.153974
398.967285	981.217163	10598.590820	1280.079346	3.107524
399.330231	984.493835	10529.101563	1297.028076	3.274459
399.693176	961.782593	10407.749023	1274.203857	3.307457
400.056091	961.556641	10480.967773	1263.695557	3.173924
400.418976	956.359070	10405.714844	1254.656128	3.156798
400.781830	970.257019	10403.794922	1268.102295	3.157302
401.144592	960.991821	10359.840820	1261.322754	3.195401
401.507355	992.064453	10444.358398	1288.892822	3.140279
401.870087	974.324585	10379.049805	1258.046021	3.016797
402.232758	968.788269	10570.908203	1280.305298	3.244253
402.595428	986.753723	10649.211914	1292.734131	3.166693
402.958038	964.946411	10855.194336	1268.780151	3.072054
403.320618	950.709595	10962.990234	1275.559692	3.244517
403.683167	953.760254	11101.291016	1290.813599	3.321531
404.045654	975.115601	11264.787109	1306.293335	3.218545
404.408142	951.048462	11323.205078	1281.548218	3.186413
404.770569	945.624878	11425.688477	1283.695190	3.225842
405.132996	977.036438	11731.103516	1324.032959	3.226654
405.495331	951.274414	11877.879883	1303.016602	3.219135
405.857666	977.601379	12057.874023	1343.693359	3.303998
406.219940	955.003113	12105.444336	1307.536133	3.161606
406.582214	955.907104	12017.423828	1311.942993	3.218690
406.944427	941.783081	11941.720703	1275.333740	3.032296
407.306549	935.455566	11833.587891	1275.898438	3.123864
407.668732	951.274414	11750.200195	1297.932007	3.210112
408.030792	944.833801	11653.705078	1292.847290	3.249768
408.392914	964.946411	11741.160156	1268.102295	2.813195
408.754883	964.381531	11624.439453	1300.756836	3.155474
409.116943	957.602051	11926.805664	1287.197998	3.004739
409.478882	954.099243	11861.720703	1305.954346	3.225773
409.840820	996.583984	12025.108398	1337.704834	3.093078
410.202667	952.517273	12220.922852	1307.536255	3.150570
410.564575	978.957397	12296.400391	1320.417236	3.017111
410.926331	960.652710	12295.721680	1296.915161	2.966567
411.288147	967.884155	12144.766602	1303.581421	3.003496
411.649872	944.494995	12276.626953	1323.015991	3.340245
412.011566	958.957886	12157.308594	1310.361084	3.137991
412.373199	967.206360	12063.185547	1324.936890	3.223965
412.734894	974.437622	11890.083984	1295.333130	2.939775
413.096436	955.003113	11871.327148	1278.836426	2.966505
413.458008	949.579590	11878.331055	1295.220215	3.162673
413.819519	955.568054	11970.533203	1299.852783	3.125609
414.181030	938.732422	11968.159180	1275.672607	3.054920
414.542450	949.805664	12072.114258	1299.513916	3.144206
414.903870	962.121460	12152.221680	1299.061768	3.011057
415.265198	954.438171	12322.953125	1285.163818	2.909137
415.626587	955.907227	12295.269531	1297.706055	3.014269
415.987854	955.906921	12499.898438	1297.367188	2.957905
416.349152	961.330688	12650.288086	1293.299194	2.840018
416.710327	946.076843	12802.714844	1308.666260	3.058113
417.071533	953.308289	12778.421875	1325.388916	3.146529
417.432678	952.856323	13206.206055	1318.496338	2.984000
417.793823	936.585449	13381.455078	1320.643311	3.086074
418.154877	928.224243	13612.974609	1332.733521	3.188942
418.515930	936.359558	14085.393555	1363.919067	3.251642
418.876923	958.392944	14456.908203	1362.562988	2.994181
419.237915	973.307739	14723.793945	1386.291260	3.003410
419.598816	962.799500	15106.947266	1385.274292	2.986923
419.959717	952.291504	15605.916992	1366.065796	2.823699
420.320526	943.365051	16305.673828	1374.992065	2.809649
420.681396	976.132690	16572.109375	1428.550049	2.900859
421.042145	959.635742	17083.390625	1415.781982	2.829032
421.402924	958.166870	17529.595703	1428.436890	2.837836
421.763580	956.698120	17836.820313	1460.187744	2.982737
422.124298	951.839478	18280.082031	1452.052246	2.886691
422.484894	971.273926	18452.962891	1483.124756	2.927925
422.845520	954.890259	18369.009766	1445.385620	2.816653
423.206055	951.952332	18285.169922	1447.984619	2.861744
423.566589	942.122070	18073.083984	1437.137451	2.889595
423.927063	964.720398	18161.216797	1447.193604	2.805648
424.287506	943.365051	17968.230469	1431.035889	2.864462
424.647949	960.878723	18085.287109	1439.736084	2.796344
425.008301	933.195923	18325.394531	1440.640259	2.917655
425.368652	949.579468	18440.984375	1468.097046	2.964414
425.728943	953.534302	18157.261719	1431.939697	2.780824
426.089203	945.398926	18535.222656	1457.814941	2.913139
426.449432	953.195313	18349.347656	1435.442383	2.772148
426.809601	964.720520	18347.652344	1446.402588	2.771006
427.169739	927.094360	18342.566406	1445.724609	2.977985
427.529846	985.849792	18193.646484	1464.594360	2.782137
427.889954	999.408875	18090.144531	1486.062744	2.847472
428.250000	944.156067	17697.730469	1443.351929	2.979638
428.609985	953.195313	17561.121094	1427.872192	2.858135
428.969940	965.850281	17316.154297	1411.714111	2.726945
429.329865	979.635254	17305.871094	1424.030396	2.721969
429.689789	983.477173	17040.570313	1432.052734	2.793629
430.049622	958.957886	17026.332031	1419.171753	2.864275
430.409454	958.618835	16694.025391	1399.624146	2.802631
430.769226	975.228516	16508.605469	1389.681030	2.668142
431.128937	976.471375	16303.865234	1393.974731	2.723903
431.488678	943.703979	16510.638672	1390.019897	2.867076
431.848328	964.607422	16680.691406	1389.116089	2.701110
432.207947	963.251465	16489.169922	1388.437988	2.738560
432.567566	960.765747	16729.730469	1404.031006	2.810998
432.927124	951.161316	16793.230469	1391.149902	2.777343
433.286621	965.059387	17091.980469	1385.613403	2.607776
433.646118	949.692505	17415.019531	1409.793213	2.794361
434.005554	962.912476	17328.810547	1421.544434	2.802363
434.364960	996.132019	17288.810547	1431.375000	2.671402
434.724335	951.613464	17327.566406	1431.713867	2.931740
435.083649	966.302246	17008.140625	1410.471436	2.768817
435.442932	954.099243	16959.667969	1387.195190	2.705908
435.802216	970.596008	17085.089844	1425.951416	2.825751
436.161407	982.686035	16842.044922	1417.702881	2.742966
436.520630	960.313660	16916.730469	1395.443604	2.726990
436.879761	945.059937	17163.617188	1395.895508	2.779751
437.238831	958.731812	17376.492188	1422.448486	2.824482
437.597931	952.743347	17475.363281	1406.290649	2.745008
437.956940	962.573608	17320.449219	1414.539185	2.762985
438.315948	942.461121	17463.158203	1415.217041	2.861598
438.674896	970.483032	17410.839844	1425.612305	2.768366
439.033844	961.104797	17149.492188	1420.188721	2.835884
439.392700	948.449707	17362.257813	1408.211670	2.801068
439.751556	956.020142	17331.408203	1392.053833	2.662738
440.110352	954.664185	18045.513672	1419.058838	2.717212
440.469116	956.020020	18088.113281	1433.295532	2.785856
440.827850	945.624878	18286.751953	1427.872070	2.780945
441.186554	971.951965	18903.683594	1462.673584	2.736610
441.545197	940.201355	19043.566406	1449.340454	2.812400
441.903809	979.409363	19249.662109	1475.215576	2.713735
442.262390	951.613281	19076.675781	1449.792358	2.748565
442.620941	962.347656	18770.128906	1476.006592	2.884463
442.979462	952.517395	18842.105469	1449.001587	2.775269
443.337921	975.906616	18720.070313	1445.724609	2.647732
443.696350	953.760254	18374.771484	1443.690796	2.812297
444.054718	958.279968	18395.337891	1446.063721	2.797397
444.413086	995.906067	18786.851563	1476.797241	2.703011
444.771423	993.194214	19161.531250	1489.904419	2.733933
445.129669	969.466003	18577.251953	1456.572021	2.766424
445.487915	933.534851	17412.423828	1399.963135	2.830460
445.846130	958.844849	17941.449219	1429.679932	2.772455
446.204285	940.314331	17986.761719	1409.680420	2.753454
446.562408	967.884094	18561.431641	1453.860107	2.762240
446.920532	939.862305	19400.283203	1459.396729	2.814315
447.278595	962.008667	19765.355469	1513.180664	2.931244
447.636566	941.896179	20449.181641	1493.859009	2.829521
447.994568	969.353149	20976.623047	1501.994385	2.662239
448.352509	960.087708	21073.230469	1500.751465	2.688112
448.710419	934.099731	20955.609375	1501.768433	2.835294
449.068237	933.986816	20834.027344	1498.830811	2.838406
449.426056	959.409851	20978.771484	1519.395264	2.797219
449.783844	970.482788	20521.609375	1498.830811	2.702392
450.141602	957.263000	20481.382813	1490.130493	2.729278
450.499329	942.912964	20260.597656	1490.469116	2.834481
450.856964	973.759766	19858.574219	1475.893311	2.658928
451.214630	964.946472	19957.779297	1479.283203	2.708057
451.572235	952.856445	19614.289063	1445.950806	2.642318
451.929779	950.483521	19697.449219	1481.656006	2.833379
452.287323	969.240051	19792.812500	1491.825073	2.776227
452.644806	972.629883	19706.035156	1491.938232	2.772098
453.002258	980.652039	19646.376953	1496.118774	2.761568
453.359650	967.545227	19305.480469	1498.717651	2.896577
453.717010	973.985718	19371.472656	1493.520264	2.823943
454.074341	969.014038	18963.003906	1469.000732	2.778632
454.431641	973.533813	18853.628906	1453.069214	2.681951
454.788910	966.980286	18625.160156	1464.029175	2.814837
455.146118	951.839355	18622.673828	1456.006836	2.853105
455.503296	945.624878	18337.933594	1454.312134	2.924783
455.860443	946.302856	18698.041016	1448.549561	2.829282
456.217560	954.212097	18335.113281	1453.295166	2.871445
456.574615	986.866821	18111.160156	1458.040771	2.751494
456.931641	977.375488	18296.693359	1480.413086	2.904488
457.288635	964.381348	18386.521484	1475.215576	2.932098
457.645599	952.517395	18176.583984	1444.820923	2.858231
458.002502	970.596008	18495.105469	1466.628174	2.830505
458.359375	959.522766	18518.269531	1430.244873	2.680841
458.716217	967.771179	19216.894531	1461.995728	2.708210
459.073029	964.042480	19969.304688	1482.220947	2.726500
459.429779	995.002136	20826.796875	1536.117920	2.728527
459.786499	980.652161	21740.218750	1526.513428	2.629444
460.143219	962.573547	22565.283203	1547.416992	2.707269
460.499847	948.336731	22632.738281	1562.670898	2.833069
460.856476	962.912598	23432.492188	1565.269531	2.680766
461.213043	970.256958	23473.736328	1597.246094	2.786188
461.569550	983.138000	23422.324219	1580.410400	2.661738
461.926056	989.691406	23137.472656	1603.799561	2.772775
462.282501	983.589966	22484.945313	1598.037109	2.857713
462.638916	960.652710	21859.197266	1521.089966	2.681705
462.995331	949.127625	21229.044922	1510.581909	2.768523
463.351654	963.816406	21093.570313	1529.451294	2.809944
463.707947	954.664246	20570.988281	1510.468750	2.833377
464.064209	980.991089	20398.220703	1519.169189	2.771652
464.420441	949.579590	20180.488281	1490.582275	2.813194
464.776642	945.285950	19897.554688	1477.362183	2.807454
465.132782	963.929504	19953.826172	1490.921143	2.775116
465.488892	953.534302	19688.410156	1480.526123	2.812892
465.844971	961.104675	19968.060547	1482.333984	2.742308
466.201019	941.896118	20165.908203	1505.610229	2.932344
466.557007	946.076965	20183.083984	1481.994995	2.785870
466.912964	956.698059	20509.517578	1514.423462	2.852404
467.268890	947.319702	20767.251953	1508.773926	2.832776
467.624756	943.816895	20936.853516	1520.525024	2.884545
467.980591	959.974792	21240.574219	1531.372314	2.817459
468.336426	963.138672	21178.654297	1551.823608	2.912045
468.692169	958.957825	21075.716797	1516.457397	2.771319
469.047913	962.347534	20725.105469	1508.435059	2.763215
469.403625	940.879272	20624.089844	1501.203369	2.846711
469.759247	961.104675	20157.777344	1504.480225	2.830572
470.114838	938.280457	20184.777344	1480.864990	2.819134
470.470459	946.980835	20097.775391	1487.305664	2.821423
470.825958	945.737915	19836.880859	1471.260864	2.781848
471.181488	975.567566	19867.048828	1489.339355	2.719595
471.536926	978.053406	19877.781250	1490.582275	2.711832
471.892365	948.110718	20095.066406	1476.232422	2.758254
472.247742	961.443665	20069.189453	1495.214844	2.793481
472.603058	970.821960	20208.171875	1501.655518	2.759390
472.958374	977.714539	20499.800781	1518.717163	2.771234
473.313629	956.697876	20785.781250	1491.373291	2.696420
473.668884	970.935059	20968.714844	1536.117920	2.826228
474.024048	940.088257	21425.988281	1526.852661	2.864235
474.379211	951.161316	21498.527344	1510.581787	2.722590
474.734314	942.461121	21362.714844	1518.378174	2.820323
475.089417	939.184387	21377.628906	1509.452026	2.790171
475.444458	954.777222	21467.230469	1510.129883	2.707393
475.799438	937.715515	21440.117188	1491.825195	2.702657
476.154388	934.212708	21681.802734	1520.524902	2.825929
476.509308	955.229004	22090.607422	1526.852417	2.704581
476.864197	966.641235	22209.359375	1535.778687	2.679212
477.219025	956.697937	22574.662109	1526.287720	2.634798
477.573822	945.398804	23162.781250	1556.908081	2.752391
477.928619	936.133606	23544.125000	1580.410400	2.849775
478.283325	958.392883	23762.199219	1594.308472	2.788638
478.638000	946.528809	24242.751953	1590.353760	2.763645
478.992676	952.291321	24497.097656	1595.438232	2.731587
479.347260	1007.205078	25049.962891	1662.329102	2.724829
479.701843	964.946411	25196.849609	1642.894775	2.797751
480.056366	949.918457	25629.949219	1646.736328	2.823408
480.410858	981.443237	26296.031250	1657.018799	2.668720
480.765320	979.296387	26897.712891	1683.910522	2.718585
481.119751	943.591003	27471.822266	1671.820557	2.745112
481.474091	966.076294	28542.636719	1716.565063	2.721473
481.828430	956.359070	29719.675781	1739.163330	2.721537
482.182709	969.240112	31304.371094	1796.223877	2.726159
482.536987	947.545776	33105.347656	1830.573486	2.745920
482.891174	959.183777	35584.832031	1912.944336	2.754492
483.245361	958.392944	38864.289063	1967.406250	2.661890
483.599518	962.347534	43165.417969	2103.447754	2.703832
483.953644	961.895691	47441.132813	2230.336670	2.729048
484.307678	955.568176	50840.925781	2310.673584	2.716439
484.661713	956.811035	52736.468750	2409.880371	2.806255
485.015686	956.698059	53778.917969	2448.523193	2.824238
485.369659	963.477539	53526.730469	2467.731934	2.861799
485.723572	947.997681	52204.847656	2394.739258	2.822533
486.077423	946.754761	49882.085938	2300.165527	2.765713
486.431274	952.630371	47426.324219	2240.958252	2.772166
486.785034	954.099243	45941.390625	2197.908203	2.764801
487.138794	947.884644	45286.042969	2159.377930	2.732394
487.492523	978.166382	45642.988281	2207.738770	2.752888
487.846191	947.432800	46403.636719	2197.456543	2.749952
488.199829	958.731812	47120.343750	2224.687256	2.742442
488.553436	962.686646	47514.230469	2267.624023	2.803210
488.906982	959.409790	47365.195313	2239.037354	2.757474
489.260529	961.217773	46385.335938	2187.513184	2.699657
489.613983	959.522827	45168.871094	2180.733887	2.762337
489.967438	973.307800	43374.000000	2137.006104	2.744527
490.320831	960.313782	42093.699219	2101.413818	2.774146
490.674194	986.866821	41002.195313	2072.374756	2.712730
491.027527	956.698059	40920.054688	2065.821533	2.775351
491.380798	942.009155	41422.757813	2072.826660	2.793470
491.734070	967.545105	42819.664063	2096.329102	2.697077
492.087250	953.421265	43607.894531	2153.390137	2.813231
492.440430	957.263000	44059.632813	2151.694824	2.771151
492.793549	937.941589	43800.429688	2139.943848	2.804322
493.146637	963.251465	43270.843750	2163.106934	2.836029
493.499695	952.404419	41524.105469	2084.916748	2.791385
493.852692	968.562195	39076.039063	2064.239746	2.875230
494.205658	952.630493	36799.265625	1959.948486	2.810077
494.558594	978.166382	35063.257813	1924.243530	2.775633
494.911499	957.036926	33383.304688	1872.493408	2.823194
495.264374	942.574219	32157.572266	1814.302734	2.792659
495.617188	975.002808	31383.019531	1826.957642	2.801744
495.969940	955.003235	30913.197266	1794.868164	2.803457
496.322693	943.703918	30728.119141	1774.642578	2.789844
496.675385	958.844727	30821.900391	1799.613525	2.815415
497.028015	968.901001	30929.808594	1804.811279	2.790003
497.380676	954.212219	31045.062500	1793.964233	2.790722
497.733246	953.873230	30997.156250	1775.320557	2.734213
498.085785	1146.184570	31224.718750	1988.196533	2.799378
498.438263	959.409851	30905.628906	1804.359375	2.821557
498.790710	961.443665	30637.837891	1791.478271	2.796952
499.143158	972.742798	30333.890625	1788.314453	2.777724
499.495544	937.376343	29967.009766	1756.790039	2.822680
499.847870	950.709473	29433.578125	1717.468994	2.692002
500.200165	957.714966	29048.162109	1735.095703	2.767420
500.552429	957.488953	28556.537109	1702.554077	2.699604
500.904663	953.421204	28137.000000	1686.735596	2.697638
501.256866	972.742676	27986.269531	1698.260498	2.685757
501.609009	964.494507	27521.425781	1687.752319	2.723424
501.961090	951.161499	27261.542969	1683.119507	2.782012
502.313171	960.539734	27276.228516	1680.634033	2.736369
502.665253	950.709595	27067.650391	1678.148071	2.785313
503.017181	951.274414	26887.541016	1675.097290	2.790775
503.369110	928.563171	26865.621094	1655.662476	2.803322
503.721069	979.183289	26939.177734	1683.571533	2.713361
504.072937	963.025574	26989.912109	1686.961548	2.781493
504.424774	955.342102	26970.253906	1658.826538	2.704158
504.776520	945.737915	26978.390625	1651.256104	2.710128
505.128265	947.997742	26960.646484	1641.990845	2.667906
505.480042	947.997742	27122.902344	1647.753296	2.673383
505.831665	960.652710	26920.988281	1660.521484	2.695916
506.183289	950.935425	26781.667969	1647.866211	2.698068
506.534882	969.466003	26862.458984	1675.323242	2.726055
506.886505	945.511841	26631.619141	1653.515869	2.756370
507.237946	947.545715	26610.828125	1652.385742	2.746492
507.589417	943.139160	26637.494141	1639.730835	2.711069
507.940857	958.844849	26563.593750	1680.972656	2.820289
508.292297	957.488892	26682.916016	1669.334717	2.767090
508.643616	952.969360	26924.828125	1652.273071	2.692544
508.994904	949.918579	27103.244141	1636.228271	2.624177
509.346191	972.629761	27334.759766	1664.589111	2.624823
509.697479	962.460571	27390.015625	1675.775146	2.699132
510.048645	997.148804	27644.808594	1716.225952	2.698463
510.399780	970.596069	27683.453125	1682.215820	2.663960
510.750916	963.025513	27990.671875	1697.469482	2.717381
511.102051	960.313843	27982.878906	1666.057983	2.611685
511.453033	1008.335083	28217.113281	1735.660522	2.673128
511.804016	966.528198	28287.394531	1697.695557	2.676223
512.154968	940.314331	28474.166016	1705.718018	2.779864
512.505920	959.635742	28749.527344	1715.209229	2.718879
512.856750	963.138489	28683.765625	1726.169312	2.752574
513.207581	963.251648	28887.146484	1713.966187	2.688431
513.558411	962.121582	28898.562500	1724.587280	2.729287
513.909180	973.307922	28771.447266	1732.835693	2.732297
514.259888	963.816406	28819.240234	1715.661133	2.699096
514.610535	956.697937	28638.339844	1719.728882	2.756451
514.961182	943.365051	28481.621094	1724.587524	2.836863
515.311829	954.212097	28410.437500	1699.955444	2.716118
515.662354	955.567993	28513.037109	1732.835938	2.820535
516.012878	954.325195	28596.990234	1738.711548	2.837593
516.363281	933.421875	28715.855469	1722.553711	2.840399
516.713745	951.500366	28903.988281	1735.321655	2.804120
517.064209	950.144653	29331.208984	1766.394287	2.876036
517.414490	945.850952	29764.527344	1774.077759	2.873924
517.764832	948.336548	30423.042969	1792.043213	2.862477
518.115173	950.370483	31122.574219	1823.115845	2.892548
518.465393	955.003113	31990.458984	1842.098389	2.858329
518.815552	945.059937	32790.777344	1877.465088	2.927882
519.165710	975.454468	33280.929688	1941.191772	2.989392
519.515869	955.003296	33210.761719	1913.396118	2.971230
519.865967	956.245972	33593.921875	1906.842407	2.912574
520.216003	956.811035	33139.472656	1898.594116	2.926368
520.565918	968.223022	32688.177734	1910.797241	2.971550
520.915955	953.534302	32274.972656	1900.854248	3.024510
521.265869	960.087769	31683.796875	1882.549438	3.002442
521.615723	963.251465	31382.902344	1901.418945	3.084084
521.965576	1008.109070	31162.683594	1922.548462	3.032506
522.315369	952.517395	30819.074219	1877.464844	3.096934
522.665161	942.461121	30847.324219	1904.130859	3.215764
523.014832	940.653198	30950.488281	1889.893799	3.163098
523.364502	950.144531	31150.593750	1917.463623	3.202996
523.714172	961.895630	31240.083984	1930.909790	3.200371
524.063782	970.144043	31670.468750	1979.156982	3.286652
524.413330	946.076782	32247.972656	1958.253662	3.233596
524.762817	954.777222	32970.429688	1993.958984	3.245855
525.112366	950.822571	33842.054688	2051.132568	3.345299
525.461792	955.568054	35034.890625	2083.109131	3.308578
525.811157	966.641235	36072.042969	2157.457764	3.392118
526.160522	957.149902	37282.070313	2174.971191	3.352578
526.509827	963.477539	38267.921875	2264.234375	3.486868
526.859131	938.619446	39457.382813	2271.578613	3.460545
527.208313	953.082336	40903.222656	2345.475098	3.485327
527.557495	959.409790	42155.390625	2385.021973	3.460561
527.906738	947.658691	44086.867188	2477.449219	3.546172
528.255859	947.771790	46767.695313	2624.337646	3.659033
528.604919	959.635925	49593.156250	2746.707275	3.674567
528.953918	945.511841	51799.761719	2884.895996	3.813613
529.302917	956.811157	53005.394531	2971.786621	3.871336
529.651917	991.725403	53731.925781	3057.885742	3.917620
530.000793	956.133118	53393.511719	3018.338379	3.932701
530.349609	969.692017	52210.039063	3024.327637	4.009800
530.698547	975.115723	50100.375000	2915.064697	3.948985
531.047302	983.138000	47163.957031	2813.033691	3.962458
531.396057	954.099243	44752.273438	2698.912109	3.983757
531.744751	951.274414	42749.726563	2618.914307	3.989717
532.093445	949.240601	41547.722656	2612.925293	4.097899
532.442139	972.516785	40877.125000	2606.485107	4.094686
532.790710	964.494324	40832.937500	2603.321289	4.110587
533.139160	937.602417	41959.808594	2648.179199	4.169880
533.487732	952.856262	42707.234375	2703.544678	4.192826
533.836243	951.161438	43355.585938	2753.938965	4.251390
534.184631	946.415710	43596.480469	2779.926758	4.298964
534.533020	953.308289	43568.570313	2806.141113	4.347815
534.881348	946.302856	42593.117188	2769.983643	4.378921
535.229736	964.494446	41422.976563	2776.424316	4.478492
535.577942	969.353027	39897.480469	2706.256348	4.461821
535.926086	982.686035	38711.867188	2694.392334	4.536824
536.274353	952.856323	38155.039063	2664.901611	4.602002
536.622498	974.776672	37817.308594	2662.302979	4.580376
536.970642	957.488953	37766.238281	2662.416016	4.631853
537.318665	935.681519	37596.976563	2682.641113	4.765133
537.666687	944.946960	37306.820313	2672.585449	4.751236
538.014709	953.647156	36949.648438	2688.290771	4.818990
538.362610	943.591125	36242.441406	2673.940918	4.902000
538.710510	956.810913	35548.445313	2694.392090	5.023126
539.058411	961.330688	34723.265625	2631.795166	4.947775
539.406250	956.472046	34345.988281	2646.145020	5.060490
539.753967	960.313782	34301.476563	2656.540283	5.087484
540.101746	968.336121	34497.398438	2692.358643	5.141875
540.449463	951.387512	35578.503906	2732.357666	5.143282
540.797119	998.165894	36877.671875	2860.715820	5.191124
541.144714	949.353699	38928.132813	2951.108887	5.270720
541.492249	962.234558	40738.929688	3094.720703	5.361145
541.839844	961.104675	42496.281250	3204.209717	5.400495
542.187378	958.957886	43361.234375	3294.263672	5.507501
542.534790	942.574097	43591.398438	3309.856934	5.550640
542.882202	951.387512	43519.300781	3304.998047	5.529072
543.229553	948.336731	42402.046875	3261.383545	5.579831
543.576965	949.579590	40825.367188	3177.995605	5.588394
543.924194	950.257507	39347.777344	3157.092041	5.747336
544.271423	946.754761	37670.871094	3064.439209	5.766468
544.618652	948.562683	36318.820313	3004.102051	5.811491
544.965881	978.392395	34997.500000	2982.972900	5.892513
545.312988	945.285828	33940.687500	2925.007813	5.999993
545.660034	992.855286	32979.136719	2897.211670	5.953666
546.007141	974.889648	32279.605469	2876.534668	6.074628
546.354126	944.042969	31827.521484	2838.908691	6.135532
546.701111	958.732056	31658.712891	2854.501465	6.175148
547.048035	940.427246	31600.527344	2848.738770	6.224088
547.394836	942.913086	31362.453125	2872.579834	6.343511
547.741699	954.777161	31027.542969	2869.077148	6.365561
548.088562	960.426758	30631.285156	2884.443848	6.484534
548.435303	954.551270	30109.150391	2842.072266	6.474179
548.781921	960.539856	29157.083984	2832.128662	6.637653
549.128662	961.443665	28389.425781	2771.791748	6.600369
549.475342	955.003113	27574.302734	2748.289307	6.736790
549.821899	957.036987	26781.781250	2701.510986	6.755049
550.168457	996.018921	26222.136719	2710.550293	6.796652
550.515015	986.075684	25530.740234	2710.776123	7.026783
550.861511	974.776733	25116.519531	2644.563477	6.916596
551.207886	955.342285	24858.894531	2640.495605	7.049803
551.554260	988.109680	24549.978516	2693.149658	7.236438
551.900635	965.511353	24573.136719	2666.370605	7.204703
552.247009	953.421204	24501.617188	2667.387451	7.278546
552.593262	952.856262	24418.226563	2715.634766	7.512255
552.939392	950.709473	24743.980469	2759.701660	7.602957
553.285645	956.246094	24691.894531	2763.203857	7.612844
553.631775	963.477661	24608.394531	2785.802490	7.707047
553.977905	961.782593	24557.660156	2786.141357	7.731685
554.323975	948.788574	24398.796875	2801.508057	7.900720
554.669983	959.635864	24331.226563	2815.180176	7.939316
555.015991	933.195801	23925.248047	2803.428711	8.134258
555.361877	941.783081	23588.644531	2792.920898	8.173926
555.707825	955.229126	23158.375000	2801.733887	8.316410
556.053711	949.127747	23000.638672	2782.186768	8.312623
556.399536	953.308289	22729.121094	2797.214355	8.467679
556.745239	944.833984	22627.427734	2783.429688	8.479593
557.091003	941.670227	22393.646484	2777.892822	8.559690
557.436707	949.353516	22292.181641	2795.746094	8.651114
557.782410	945.511841	22239.980469	2803.767822	8.726473
558.127991	954.099304	21982.357422	2814.954102	8.849305
558.473511	978.618347	21932.191406	2869.189941	9.022669
558.819092	953.873230	21850.839844	2831.225098	8.983849
559.164612	956.923950	21730.277344	2842.072266	9.074839
559.510010	963.251587	21646.324219	2881.732178	9.275607
559.855408	946.302734	21609.939453	2899.810791	9.453844
560.200806	961.217590	21506.105469	2910.658203	9.488689
560.546143	941.331238	21429.716797	2893.709229	9.529194
560.891357	952.065430	21650.166016	2977.661621	9.786386
561.236633	973.194824	21619.433594	3008.621582	9.858584
561.581848	950.483398	21659.771484	3048.055176	10.128652
561.927002	944.268921	21640.673828	3042.632080	10.138782
562.272095	942.235046	21752.199219	3082.970215	10.287067
562.617126	960.765808	21682.595703	3100.935303	10.328091
562.962219	975.228638	21612.087891	3129.070068	10.436866
563.307251	961.443726	21581.917969	3131.330078	10.522969
563.652161	950.596497	21542.259766	3171.554932	10.785716
563.997009	947.319702	21514.689453	3176.978271	10.840758
564.341919	947.206726	21496.609375	3201.497803	10.970105
564.686768	953.534302	21454.919922	3229.067871	11.099415
565.031555	947.432739	21594.916016	3270.648438	11.251812
565.376282	977.375366	21793.550781	3355.731201	11.425518
565.721008	974.550659	21973.998047	3366.578125	11.390906
566.065674	959.635742	22286.082031	3442.621582	11.642756
566.410278	950.370483	22573.984375	3477.309814	11.686019
566.754822	954.777222	22938.494141	3568.833252	11.890875
567.099365	942.009155	23025.498047	3625.215576	12.150284
567.443909	936.811523	23154.417969	3634.594238	12.142545
567.788330	957.150024	22964.255859	3678.547607	12.365994
568.132751	957.940918	22907.984375	3679.790527	12.400202
568.477112	947.206665	22553.082031	3673.688965	12.619171
568.821533	946.641785	22335.347656	3716.625732	12.950686
569.165771	969.127075	22193.878906	3770.974121	13.200848
569.510010	960.878601	22127.892578	3727.812012	13.071912
569.854248	977.262390	22036.033203	3762.612549	13.226556
570.198364	955.455078	21883.042969	3768.601563	13.442287
570.542542	960.087769	22081.679688	3849.503174	13.679914
570.886536	961.330688	22087.894531	3854.249268	13.693274
571.230591	948.562683	22226.306641	3931.309814	14.018154
571.574646	957.375977	22419.410156	3965.432129	14.015708
571.918518	950.370422	22539.861328	3982.494141	14.044443
572.262451	935.229675	22790.021484	4080.683105	14.392511
572.606323	960.991699	22996.910156	4178.308105	14.600328
572.950195	950.596497	23073.740234	4218.419922	14.771063
573.293945	942.800171	23172.160156	4264.860352	14.944470
573.637695	956.472046	22822.560547	4233.334961	14.986050
573.981384	962.008606	22728.441406	4277.062988	15.230123
574.325134	966.641235	22605.505859	4296.158203	15.386745
574.668701	944.042969	22414.890625	4264.973145	15.467159
575.012268	944.269043	22252.070313	4323.728027	15.860196
575.355774	949.353516	22132.410156	4314.124023	15.884254
575.699341	955.342102	22115.687500	4392.991699	16.245716
576.042725	964.042603	21951.062500	4369.150879	16.224831
576.386169	961.782715	21821.685547	4365.760742	16.318283
576.729553	965.285461	21577.849609	4405.420898	16.689508
577.072876	987.770630	21347.458984	4441.691406	16.964508
577.416138	991.499329	20946.566406	4403.274414	17.097288
577.759399	963.816406	20571.775391	4340.563965	17.221312
578.102600	957.036987	20300.484375	4315.140625	17.360418
578.445801	961.669617	19976.875000	4288.023438	17.493126
578.788940	966.867371	19647.052734	4276.950195	17.719753
579.131897	954.325317	19392.597656	4281.470215	18.044777
579.474976	963.816406	19120.964844	4260.792480	18.158007
579.817993	959.409973	18863.005859	4235.369141	18.297773
580.160950	957.375977	18668.210938	4233.674316	18.498835
580.503845	974.098633	18403.923828	4221.697266	18.632423
580.846680	950.257507	18292.966797	4233.561523	18.931898
581.189514	949.127625	18092.406250	4238.419434	19.187063
581.532349	941.896179	17947.437500	4227.798340	19.322538
581.875061	959.183777	17848.230469	4258.079590	19.532753
582.217773	955.567993	17766.988281	4286.328613	19.812489
582.560425	994.889038	17781.570313	4326.213379	19.845043
582.903076	975.228638	17594.791016	4330.959473	20.191452
583.245667	947.432617	17492.875000	4302.033691	20.275078
583.588135	948.110718	17565.187500	4347.908203	20.459660
583.930664	953.421265	17374.230469	4347.568848	20.669794
584.273071	945.398804	17288.808594	4371.297852	20.961960
584.615479	967.884155	17216.609375	4380.111328	20.999968
584.957825	951.274536	17185.650391	4392.766602	21.198795
585.300232	951.048462	17100.792969	4405.533203	21.390339
585.642517	957.715027	16913.453125	4394.460938	21.539248
585.984680	965.285339	17025.203125	4432.200195	21.587376
586.326843	970.708984	16930.177734	4471.859863	21.937765
586.669067	988.787720	16885.769531	4540.785156	22.343849
587.011230	979.861328	16864.189453	4546.321289	22.452696
587.353271	954.890137	16833.908203	4523.270996	22.472303
587.695251	950.822388	16822.042969	4582.478516	22.882023
588.037231	968.336121	16878.539063	4615.472168	22.923252
588.379211	954.212219	16808.482422	4665.978516	23.411776
588.721069	966.641113	16888.144531	4683.944336	23.347689
589.062927	948.788696	16998.308594	4716.711914	23.476860
589.404785	995.341125	17082.828125	4802.472656	23.665173
589.746582	943.139282	17053.789063	4829.816895	24.124899
590.088257	956.246094	17174.011719	4854.222656	24.035225
590.429932	972.290710	17195.255859	4911.057129	24.278955
590.771606	949.014465	17184.068359	4912.752441	24.414690
591.113220	952.065308	17181.128906	4981.563477	24.828901
591.454773	1007.431152	17166.214844	5025.630371	24.866966
591.796265	954.777222	17047.460938	4989.247559	25.070213
592.137817	960.652832	16909.613281	5006.421875	25.366976
592.479248	958.505859	16799.447266	4995.462402	25.484322
592.820618	952.178345	16793.117188	4995.575195	25.524984
593.161926	967.997253	16651.765625	5019.981445	25.835526
593.503296	961.104797	16738.769531	5083.029785	26.125063
593.844604	953.082336	16767.359375	5093.086914	26.178904
594.185791	952.291321	16796.619141	5139.751953	26.428766
594.526917	952.856262	16906.675781	5197.151855	26.603632
594.868103	955.794067	16959.781250	5243.817383	26.793468
595.209229	955.003235	17011.642578	5310.707520	27.127121
595.550232	961.443665	17248.134766	5381.101563	27.136621
595.891235	951.387390	17383.271484	5406.298828	27.111385
596.232178	963.477539	17583.716797	5521.210449	27.422789
596.573181	971.951965	17766.990234	5632.621094	27.750271
596.914063	946.754761	18091.048828	5692.958008	27.683863
597.254883	958.279968	18262.910156	5841.880371	28.221352
597.595703	962.008606	18366.070313	5897.585449	28.358763
597.936462	958.844849	18404.828125	5919.843750	28.436340
598.277161	947.545715	18252.628906	5920.861328	28.739042
598.617798	958.957703	18019.867188	5873.178711	28.803980
598.958435	958.279785	17681.343750	5755.328613	28.685226
599.299072	971.951843	17220.228516	5694.200684	29.063076
599.639587	969.466003	16778.318359	5602.225098	29.304842
599.980103	977.827515	16557.078125	5559.854492	29.411085
600.320557	970.370117	16285.333984	5533.979492	29.798368
600.661072	950.822449	16017.432617	5465.279785	29.963326
601.001404	950.144653	15926.698242	5461.099121	30.120111
601.341675	968.110168	15752.693359	5456.014648	30.355299
601.681946	957.715027	15723.767578	5454.094727	30.450790
602.022278	959.974731	15825.120117	5491.833496	30.486475
602.362427	943.929993	15776.987305	5493.753906	30.673538
602.702576	957.941040	15932.689453	5612.056152	31.079756
603.042725	945.963867	16154.830078	5689.907227	31.191959
603.382813	964.833496	16380.812500	5791.600098	31.310154
603.722839	960.878723	16769.501953	5909.674805	31.304409
604.062805	973.420776	17015.822266	6066.393555	31.746946
604.402771	1019.295288	17366.775391	6195.995117	31.666653
604.742737	962.912415	17757.160156	6326.614258	31.937731
605.082581	952.856323	17871.511719	6353.052734	31.918589
605.422363	959.296875	18086.531250	6461.073242	32.122971
605.762146	950.822571	18012.292969	6497.343262	32.509041
606.101929	952.856323	17944.501953	6448.531250	32.343391
606.441589	967.432251	17713.093750	6447.513672	32.725380
606.781189	967.093262	17372.425781	6350.906250	32.817459
607.120850	973.985718	16990.175781	6247.858398	32.928383
607.460388	961.330688	16619.562500	6163.227539	33.221485
607.799927	968.901062	16371.320313	6084.020508	33.209846
608.139404	960.878723	16153.135742	6054.416992	33.527199
608.478821	967.545105	16029.521484	6001.198242	33.419605
608.818298	978.505493	16024.888672	5999.842285	33.372387
609.157593	965.963257	16173.698242	6086.506348	33.670647
609.496887	971.725952	16246.353516	6176.222168	34.072819
609.836182	960.426758	16451.773438	6272.490234	34.290520
610.175415	948.336731	16538.548828	6280.399902	34.201351
610.514526	981.895020	16569.507813	6336.104980	34.349133
610.853699	980.200073	16557.302734	6351.471680	34.481838
611.192688	951.726379	16381.604492	6344.239746	34.948513
611.531799	946.076965	16212.908203	6231.135742	34.617916
611.870850	980.539246	15932.122070	6232.716797	35.127903
612.209778	962.912415	15644.901367	6151.364258	35.338886
612.548645	954.325195	15333.270508	6038.597168	35.359142
612.887573	960.539673	15066.948242	5958.939453	35.433540
613.226440	946.415710	14804.919922	5875.890137	35.570034
613.565186	952.065430	14619.051758	5828.999023	35.684044
613.903931	963.025574	14430.244141	5761.430664	35.630260
614.242676	964.042480	14343.463867	5765.610840	35.887711
614.581360	973.533691	14227.421875	5765.497559	36.155155
614.919983	949.692566	14091.494141	5705.047852	36.184959
615.258484	982.460083	13966.752930	5679.624512	36.175743
615.597046	955.455078	13982.117188	5699.624512	36.418919
615.935547	945.850891	13820.765625	5651.715820	36.550648
616.273987	954.777222	13819.862305	5679.738281	36.727009
616.612366	996.923035	13784.609375	5695.443359	36.742538
616.950806	965.963257	13813.309570	5678.381836	36.680092
617.289124	979.296387	13785.400391	5731.488281	37.108803
617.627380	975.680542	13741.559570	5724.481934	37.199173
617.965515	956.698059	13814.778320	5765.272461	37.397297
618.303772	969.917969	13885.059570	5753.972168	37.042213
618.641968	956.810913	13780.426758	5797.701172	37.749805
618.980042	948.788696	13770.373047	5770.921387	37.609493
619.318054	943.703979	13756.474609	5786.174805	37.794094
619.656128	947.884644	13747.098633	5773.858887	37.705238
619.994080	968.674988	13679.979492	5757.136230	37.670887
620.331970	976.358582	13688.001953	5804.368164	37.981003
620.669861	963.590515	13565.630859	5791.937012	38.314007
621.007751	946.980591	13488.911133	5732.730957	38.158005
621.345581	952.065308	13498.513672	5797.136230	38.617069
621.683289	950.144531	13500.776367	5757.927734	38.307102
622.020996	946.754761	13428.573242	5752.730957	38.503815
622.358704	937.263489	13379.309570	5709.454590	38.355354
622.696350	959.522766	13251.742188	5720.301758	38.730019
623.033875	980.765320	13273.662109	5757.250000	38.855652
623.371460	955.568176	13258.748047	5750.583496	38.973789
623.708984	974.663696	13263.833008	5720.640625	38.619186
624.046448	965.737305	13255.809570	5790.695313	39.258987
624.383789	960.878723	13231.065430	5771.147461	39.202896
624.721191	953.534180	13252.307617	5775.441406	39.206406
625.058533	933.421753	13235.583984	5782.107422	39.413280
625.395813	957.827942	13303.151367	5827.191406	39.442978
625.733032	965.511353	13447.895508	5892.048340	39.467918
626.070190	962.460632	13516.254883	5952.160156	39.746548
626.407410	985.284790	13668.115234	6014.644043	39.654865
626.744507	961.443726	13706.192383	6061.422852	40.016315
627.081543	952.291504	13862.122070	6091.930176	39.811821
627.418518	964.494507	13991.833984	6153.510742	39.831741
627.755554	952.517273	13995.904297	6154.866211	39.884956
628.092529	963.477356	14034.208008	6193.169922	40.010712
628.429382	958.166870	13904.041992	6156.334961	40.153084
628.766174	974.663574	13773.421875	6141.984863	40.373615
629.103027	967.206360	13723.593750	6084.473145	40.115326
629.439819	954.890259	13500.887695	6008.090332	40.277390
629.776489	967.432251	13333.434570	5980.633789	40.540199
630.113159	961.669739	13250.498047	5924.025391	40.381031
630.449829	973.081848	13023.952148	5867.529785	40.614891
630.786377	953.986328	12910.958984	5806.062012	40.579468
631.122925	996.132019	12868.927734	5856.794922	40.939499
631.459412	995.002136	12716.728516	5766.627930	40.707535
631.795898	960.313782	12628.931641	5714.877930	40.746590
632.132324	957.601929	12505.886719	5645.162598	40.590965
632.468689	963.816528	12413.008789	5658.834961	41.007420
632.804993	940.201172	12315.947266	5612.620605	41.073521
633.141296	933.986694	12252.558594	5546.407227	40.750904
633.477539	959.409851	12217.643555	5588.102051	41.113842
633.813721	944.156067	12171.883789	5600.416992	41.471088
634.149841	939.410278	12163.748047	5582.677734	41.367851
634.485962	966.189270	12126.685547	5598.723145	41.508312
634.822083	975.680542	12153.579102	5592.734375	41.305202
635.158020	975.002625	12077.876953	5566.633789	41.355339
635.494019	963.364563	12039.570313	5540.758789	41.326370
635.829956	966.302246	11847.711914	5523.696289	41.882385
636.165894	956.924011	11746.697266	5444.150391	41.587772
636.501709	977.036499	11671.669922	5469.573242	42.007389
636.837463	949.240540	11599.130859	5403.812988	41.827400
637.173279	977.262573	11438.908203	5362.458008	41.916878
637.509033	962.347656	11375.857422	5326.187500	41.905563
637.844666	948.788452	11251.456055	5270.708496	41.949520
638.180237	981.782227	11187.163086	5262.122070	41.941990
638.515869	940.653198	11078.579102	5198.281738	41.997036
638.851440	948.562622	10952.820313	5144.836426	41.944881
639.186890	962.912476	10867.962891	5149.582031	42.268024
639.522339	973.646667	10805.478516	5085.290039	41.819710
639.857727	947.658813	10790.562500	5098.170898	42.167561
640.193176	985.284790	10633.053711	5057.945801	42.213505
640.528442	948.449585	10603.675781	5022.580078	42.196114
640.863708	950.709473	10491.815430	4987.100586	42.305279
641.198914	950.596558	10451.364258	4991.394531	42.531277
641.534180	945.511841	10428.990234	4944.276367	42.165588
641.869263	932.743835	10347.636719	4948.006348	42.647991
642.204346	961.782593	10300.859375	4897.159180	42.138817
642.539368	950.031555	10197.472656	4891.396973	42.621147
642.874390	968.788086	10190.013672	4902.018555	42.654095
643.209412	932.065796	10105.498047	4858.176758	42.798710
643.544312	974.550781	10075.893555	4865.182617	42.747887
643.879150	966.076294	10078.039063	4857.499023	42.706745
644.213989	959.974792	9987.533203	4836.821777	42.944576
644.548828	965.511353	9928.779297	4814.110352	42.937458
644.883545	963.364563	9974.766602	4790.270020	42.467369
645.218262	946.076843	9878.837891	4778.518066	42.903210
645.552856	962.347656	9921.886719	4797.614258	42.806519
645.887573	982.121094	9879.063477	4776.258301	42.645405
646.222107	947.093750	9902.791016	4767.784180	42.662121
646.556580	954.438171	9905.616211	4797.500977	42.933598
646.891113	949.127625	9883.921875	4800.100098	43.100853
647.225586	956.472046	9920.192383	4814.223633	43.037392
647.559937	951.613281	9926.970703	4798.065430	42.855698
647.894226	943.478027	9913.638672	4811.512207	43.121128
648.228577	985.284790	9961.545898	4879.419434	43.382595
648.562927	951.952454	9895.898438	4789.365234	42.905144
648.897095	969.805054	9870.474609	4824.845215	43.311798
649.231262	930.935913	9851.266602	4793.659180	43.302464
649.565430	985.171875	9841.662109	4824.958008	43.355618
649.899475	954.551147	9830.927734	4796.596680	43.283936
650.233521	988.335571	9783.923828	4832.641602	43.707211
650.567505	952.178345	9746.295898	4747.784180	43.160740
650.901428	958.054016	9749.914063	4778.180176	43.450714
651.235413	957.263000	9724.942383	4746.767578	43.221294
651.569275	945.172852	9739.517578	4762.812988	43.410172
651.903015	982.798950	9692.287109	4761.456055	43.385525
652.236816	931.275024	9651.157227	4703.831055	43.263844
652.570618	956.924011	9616.583008	4733.886230	43.615597
652.904297	983.364136	9638.502930	4723.153320	43.208885
653.237915	955.229126	9548.450195	4704.848145	43.634621
653.571533	942.348145	9542.348633	4658.860352	43.215260
653.905090	963.477661	9448.677734	4675.357910	43.745350
654.238586	938.280457	9400.657227	4643.380371	43.783207
654.572021	958.618835	9310.037109	4609.709473	43.718212
654.905457	952.404480	9366.080078	4601.799805	43.374565
655.238892	968.449097	9311.845703	4577.732910	43.259167
655.572144	967.771118	9247.666016	4577.958008	43.601849
655.905457	959.070984	9147.104492	4544.514160	43.788818
656.238708	962.008789	9161.340820	4562.252930	43.908993
656.571960	960.539734	9203.487305	4559.315430	43.658844
656.905090	959.296875	9182.470703	4530.275879	43.425800
657.238159	956.133118	9164.842773	4534.682617	43.594543
657.571289	1000.425659	9257.720703	4601.687012	43.613087
657.904358	955.907043	9216.479492	4585.077148	43.933640
658.237305	954.551392	9286.762695	4646.657715	44.311245
658.570190	936.585571	9465.740234	4648.803711	43.523872
658.903076	945.285950	9523.704102	4735.129395	44.178818
659.236023	957.036987	9680.083984	4795.693359	44.005913
659.568787	944.833862	9821.436523	4844.053711	43.926937
659.901428	962.686523	9944.371094	4926.424805	44.131348
660.234192	956.924011	10027.759766	4958.400879	44.113651
660.566895	956.246094	10003.692383	4943.372559	44.069080
660.899536	966.641296	10044.822266	4961.903809	44.009506
661.232056	959.974792	9900.416992	4886.312012	43.916588
661.564636	940.088257	9746.072266	4850.606934	44.407513
661.897156	960.765747	9637.036133	4739.311035	43.550343
662.229553	943.026062	9459.865234	4740.892578	44.592442
662.561951	962.799500	9293.314453	4637.391602	44.110023
662.894287	980.991211	9232.185547	4646.092773	44.419044
663.226685	958.280090	9076.032227	4540.559082	44.128956
663.558899	981.104187	8971.064453	4500.221191	44.044235
663.891052	953.647278	8839.993164	4423.725586	44.001095
664.223328	977.488403	8773.441406	4437.961914	44.388077
664.555420	967.432251	8639.321289	4374.799805	44.413673
664.887512	949.805542	8574.349609	4328.021973	44.307125
665.219543	968.788208	8517.742188	4332.880371	44.563686
665.551575	968.675110	8500.680664	4323.389648	44.539459
665.883545	956.924011	8406.785156	4274.690430	44.534607
666.215454	948.223633	8395.937500	4250.170898	44.335045
666.547302	944.381958	8329.271484	4205.652832	44.161404
666.879150	1003.024536	8386.220703	4280.226563	44.387310
667.210938	959.748718	8328.707031	4257.854004	44.756737
667.542664	971.838745	8317.069336	4234.239258	44.415222
667.874268	959.070801	8312.324219	4213.448242	44.257652
668.205994	954.777161	8247.466797	4238.758789	45.031147
668.537537	972.855835	8294.019531	4222.036133	44.380653
668.869080	963.138489	8315.487305	4244.182129	44.625790
669.200562	954.777161	8206.337891	4193.449219	44.661728
669.532043	949.014526	8243.060547	4203.958008	44.624664
669.863525	967.093262	8247.580078	4246.216797	45.039894
670.194824	958.166870	8233.004883	4184.749023	44.352631
670.526184	958.844849	8231.420898	4190.511230	44.436337
670.857483	970.821960	8161.480469	4151.077148	44.227592
671.188660	957.150024	8152.892090	4133.789551	44.146103
671.519897	952.743469	8084.646973	4119.213867	44.398674
671.851013	952.178345	8046.229004	4110.061523	44.514530
672.182129	977.262512	7999.338379	4086.785889	44.282112
672.513184	941.331238	7952.559570	4045.882080	44.279697
672.844238	999.860718	8012.332031	4125.541992	44.573177
673.175171	957.714966	7887.928711	4041.701904	44.500603
673.506104	984.380737	7908.153809	4094.468262	44.918968
673.836975	951.726379	7836.517090	4014.696777	44.488941
674.167786	962.686523	7808.834473	4014.922607	44.583263
674.498596	952.743286	7780.134277	3995.488281	44.566730
674.829407	951.161316	7726.802246	3986.900879	44.803722
675.160034	960.539673	7729.740723	4004.979736	44.974876
675.490723	938.958313	7673.921875	4001.364014	45.470264
675.821289	934.438660	7636.748535	3948.483154	44.970234
676.151917	966.076355	7618.443848	3966.675293	45.105728
676.482422	957.036987	7611.100098	3946.337158	44.924435
676.812927	948.449585	7570.083496	3911.422607	44.746861
677.143311	965.511414	7579.348633	3938.540527	44.951649
677.473694	959.522766	7533.474121	3916.959473	44.987202
677.804016	938.054504	7577.314941	3936.280762	45.159042
678.134338	946.754883	7550.760742	3911.761230	44.897087
678.464539	975.680542	7592.003906	3947.128174	44.910862
678.794800	973.194824	7590.083496	3918.315186	44.509140
679.124878	962.347534	7641.267090	3953.116455	44.779236
679.455078	956.020142	7665.334961	3933.682129	44.381016
679.785095	953.421265	7734.033691	4018.764893	45.207478
680.115173	932.743835	7796.178711	4027.690674	45.093262
680.445129	952.291321	7809.963867	4040.684814	45.035595
680.775024	975.228638	7902.955566	4071.418701	44.692722
681.104919	958.618958	7932.899414	4081.813721	44.781609
681.434814	943.704102	7937.079102	4075.260498	44.778900
681.764526	936.020630	7912.561035	4085.542480	45.144466
682.094360	938.167358	7975.609375	4090.175049	44.789112
682.424011	988.335449	8017.303711	4140.117188	44.839893
682.753723	965.511536	7982.276367	4095.598877	44.608700
683.083313	969.353027	7921.260742	4074.356201	44.664043
683.412903	965.059448	7917.306152	4062.152832	44.548092
683.742432	944.382019	7791.660156	4013.566895	44.823429
684.071899	955.455200	7729.289063	4002.719971	44.985817
684.401306	968.901062	7620.025879	3986.787842	45.374081
684.730713	1559.507080	7786.349121	4586.659180	48.614567
685.060059	1033.193115	7439.013184	3962.155762	45.723461
685.389404	978.844360	7368.959473	3868.485596	45.220486
685.718628	968.223022	7241.391602	3827.808594	45.584389
686.047852	950.257507	7247.379883	3779.448486	44.928314
686.376953	993.194214	7207.493652	3836.961670	45.761677
686.706116	952.969360	7190.319336	3772.669434	45.206699
687.035156	961.217651	7177.890625	3768.037109	45.149864
687.364197	943.930054	7201.958008	3798.430908	45.613426
687.693176	968.223022	7161.393555	3798.996582	45.707985
688.022156	947.432800	7232.013184	3810.408203	45.555553
688.351013	951.387329	7221.957031	3802.724609	45.471745
688.679871	952.065430	7223.991211	3801.933594	45.438488
689.008606	974.437683	7226.928711	3814.475830	45.422504
689.337402	939.184265	7191.110352	3785.663330	45.529633
689.666138	947.884766	7083.654785	3768.262939	45.966164
689.994751	949.579468	7022.415039	3696.287109	45.229408
690.323364	951.839478	6934.618652	3682.276611	45.638271
690.651917	951.387390	6867.616211	3623.633301	45.168060
690.980469	975.567566	6789.651367	3642.164551	45.864437
691.308960	980.426147	6745.246094	3599.679688	45.435131
691.637451	971.951843	6673.497070	3550.528076	45.225918
691.965759	958.732056	6565.928711	3507.026611	45.446854
692.294128	975.906555	6486.948242	3508.834473	45.960968
692.622437	953.421265	6438.475586	3441.039063	45.352654
692.950684	968.788208	6379.380371	3420.249268	45.308552
693.278870	957.714844	6374.182617	3427.480469	45.597347
693.607117	946.528809	6287.630859	3377.764404	45.519363
693.935120	969.014038	6243.677246	3356.635254	45.265850
694.263245	953.195190	6209.215820	3328.047607	45.183472
694.591248	975.341614	6218.254395	3356.974121	45.425755
694.919250	952.856262	6162.662598	3328.838623	45.605965
695.247192	957.150024	6134.979492	3311.099121	45.462082
695.575073	966.528198	6134.753418	3337.765137	45.881065
695.902893	945.285828	6159.499023	3316.184082	45.469910
696.230774	960.313660	6115.883789	3306.354004	45.504963
696.558411	966.641235	6193.735840	3333.132813	45.273556
696.886169	962.347534	6186.842773	3338.781982	45.486397
697.213806	942.913086	6194.526367	3357.312500	45.974434
697.541443	964.155457	6297.461914	3395.503906	45.588009
697.869019	942.574036	6367.290039	3460.473877	46.415333
698.196533	949.466492	6489.660645	3491.659668	45.886353
698.524048	945.624878	6637.339844	3574.821045	46.193394
698.851501	974.437805	6777.448242	3646.119141	46.039577
699.178772	960.991821	6942.416504	3698.434326	45.765724
699.506226	970.821899	7033.148438	3734.477783	45.587379
699.833435	974.098633	7142.636719	3814.137207	46.040707
700.160767	944.043091	7061.848633	3761.935059	46.060505
700.487915	946.076843	7018.459473	3704.422363	45.424435
700.815063	956.472046	6905.241211	3707.698730	46.248669
701.142151	939.975403	6787.278809	3627.136230	45.955559
701.469238	971.386902	6680.728027	3582.956543	45.742046
701.796265	945.172974	6510.901855	3508.042969	46.047340
702.123230	961.217590	6411.243652	3440.135498	45.484516
702.450134	963.251587	6221.192383	3361.719482	45.616104
702.777039	975.454590	6139.951660	3349.064941	45.960144
703.103882	972.403809	6029.446289	3285.563721	45.741360
703.430664	976.019653	5898.489258	3216.864502	45.522774
703.757385	954.664063	5799.508301	3175.961426	45.848686
704.084106	950.031555	5720.075684	3119.013672	45.470905
704.410767	941.783081	5650.134277	3094.042969	45.711540
704.737366	962.799500	5579.401367	3065.795166	45.552891
705.063904	993.872192	5624.372070	3107.037109	45.635784
705.390442	960.313782	5487.313477	3037.094971	45.875446
705.716919	962.347534	5450.930176	3027.830322	46.016373
706.043396	947.771667	5397.485352	3035.400391	46.916019
706.369690	956.698059	5376.355957	3001.841797	46.273804
706.696106	975.341614	5438.161621	3054.156982	46.580761
707.022278	962.686646	5329.688965	2990.204102	46.428127
707.348633	942.800110	5377.824707	3001.164307	46.411564
707.674805	955.455078	5370.706543	2997.548340	46.250893
708.000916	953.534180	5390.367676	2996.305664	46.041203
708.327026	939.071289	5335.226563	2987.379150	46.593166
708.653076	943.930054	5351.723633	2984.102295	46.285568
708.979065	950.596375	5362.909180	2966.701660	45.692707
709.305054	951.274414	5363.587891	2969.187256	45.733669
709.630920	956.133118	5385.508789	3007.265381	46.307484
709.956787	954.212219	5419.971191	3015.174561	46.150330
710.282593	931.839966	5451.608398	3043.535645	46.721325
710.608459	953.760254	5461.890625	3029.864014	46.052433
710.934082	943.365051	5497.595215	3087.037598	47.069923
711.259827	942.461060	5626.857910	3112.912598	46.333641
711.585449	954.325195	5625.502441	3125.567383	46.481689
711.911072	966.528320	5719.170898	3121.273682	45.337837
712.236572	944.381958	5706.290039	3145.454346	46.222485
712.562073	967.997070	5687.872559	3141.951660	46.059574
712.887512	959.296753	5675.331543	3109.296631	45.589146
713.213013	940.201355	5618.270508	3122.855957	46.657166
713.538330	954.551147	5608.553711	3102.969238	46.162804
713.863647	947.545715	5546.634277	3036.078613	45.411892
714.188904	962.347656	5471.495117	3058.789551	46.493088
714.514099	963.477539	5424.264648	3033.253418	46.399342
714.839294	965.285339	5378.728516	3027.942871	46.735786
715.164490	968.562012	5367.316895	3011.107178	46.434620
715.489502	991.499390	5343.475098	3018.790527	46.583237
715.814575	971.612976	5287.544434	2969.978760	46.302071
716.139526	973.759766	5296.131348	2993.367188	46.724522
716.464539	948.901672	5261.782227	2939.922852	46.164536
716.789368	944.381836	5246.528320	2932.239502	46.206184
717.114258	966.754395	5218.506836	2946.928223	46.573120
717.439026	976.132507	5195.569336	2906.025146	45.738155
717.763794	946.302734	5158.282715	2906.025635	46.527355
718.088440	951.613403	5107.210449	2862.184814	45.975857
718.413208	944.720886	5033.879883	2847.834473	46.540462
718.737793	964.607544	4990.942871	2839.247314	46.559452
719.062378	974.324707	4933.090820	2828.287354	46.831829
719.386841	959.748718	4866.651367	2754.955566	45.949615
719.711304	959.070679	4813.658203	2736.989990	46.124763
720.035767	956.472046	4776.597656	2705.126465	45.774792
720.360168	958.279785	4755.016602	2702.302002	45.934769
720.684570	964.381470	4684.848633	2676.652832	46.023018
721.008789	967.997070	4688.238770	2697.895020	46.499611
721.333069	967.319214	4645.866211	2672.133057	46.344765
721.657227	954.777222	4557.620117	2636.879883	46.688206
721.981445	955.342163	4543.496094	2630.213379	46.677799
722.305481	969.240112	4548.128906	2624.450928	46.249294
722.629578	945.624817	4500.220703	2597.332764	46.466827
722.953552	946.528687	4477.395996	2604.564209	46.958309
723.277588	952.743469	4475.927246	2586.372559	46.367981
723.601440	950.031555	4391.749023	2565.582520	46.940258
723.925354	929.467102	4460.673340	2560.045898	46.176254
724.249146	978.844421	4442.820801	2599.705566	46.791924
724.572937	965.850403	4453.104004	2574.056641	46.116699
724.896667	958.054016	4411.635254	2557.107910	46.301327
725.220398	948.901733	4417.511230	2567.051270	46.651249
725.543945	945.172974	4388.584961	2547.955566	46.546349
725.867615	948.336731	4396.946289	2555.525879	46.603977
726.191101	968.675110	4428.019043	2578.576660	46.537773
726.514648	981.443176	4447.454102	2598.010986	46.640587
726.838074	979.522278	4442.369629	2589.084473	46.480888
727.161499	947.658691	4478.526367	2576.542480	46.132679
727.484863	980.878235	4530.163086	2622.755859	46.259396
727.808228	990.934387	4520.897461	2622.077637	46.208508
728.131470	963.590515	4556.489746	2633.603027	46.480915
728.454712	956.810913	4582.817383	2643.320557	46.511490
728.777832	945.624817	4605.641602	2631.569336	46.063847
729.101013	945.398804	4556.038086	2629.874268	46.653111
729.424011	962.460632	4601.234863	2672.924072	47.006584
729.747070	964.381470	4632.081055	2653.376465	46.050526
730.070068	962.573547	4585.642090	2663.997559	46.960857
730.393005	950.144531	4569.258789	2663.771973	47.349361
730.715881	942.348022	4558.750488	2618.462158	46.347557
731.038757	940.314331	4539.654785	2648.631104	47.461941
731.361572	945.172974	4563.495117	2640.608887	46.856964
731.684326	947.771667	4596.037109	2646.709961	46.568382
732.007019	952.743286	4564.852051	2657.218262	47.187809
732.329712	950.935425	4592.083008	2677.556885	47.419708
732.652283	952.065247	4630.952148	2674.393066	46.816547
732.974854	951.726379	4659.200195	2681.059326	46.644508
733.297363	956.359009	4660.103516	2672.811279	46.343700
733.619873	980.200195	4638.974121	2681.172852	46.490238
733.942261	939.071411	4625.641113	2672.246094	47.013206
734.264648	969.466003	4609.031738	2666.935791	46.639347
734.586975	937.037476	4515.587891	2597.219971	46.392601
734.909302	942.574036	4461.238281	2594.056152	46.934917
735.231506	953.195190	4456.266602	2569.424072	46.137482
735.553711	943.477905	4385.195313	2548.294678	46.628372
735.875854	961.217651	4334.349121	2542.532227	46.879723
736.197937	943.930054	4269.152832	2502.081543	46.858562
736.519958	937.602539	4229.832520	2493.267578	47.252625
736.841980	954.325195	4172.319824	2459.370361	46.769661
737.163940	952.969238	4158.534668	2462.308105	47.084949
737.485840	974.889648	4139.552734	2457.675293	46.854454
737.807678	956.471985	4101.700195	2438.692871	47.126022
738.129517	930.370972	4082.604736	2402.423096	46.698696
738.451233	960.426758	4167.122070	2433.608398	45.940804
738.773010	935.568665	4100.344238	2435.980957	47.409756
739.094666	945.173035	4178.308105	2464.906982	47.004963
739.416260	985.171875	4201.697754	2523.775391	47.834328
739.737854	946.528809	4180.567871	2485.471436	47.585777
740.059448	957.714966	4188.929199	2472.815918	46.889523
740.380859	948.788696	4193.223633	2451.687012	46.322342
740.702332	949.014526	4171.415527	2445.585205	46.442722
741.023682	943.591125	4136.953125	2436.772217	46.758907
741.345032	939.071411	4083.960449	2430.218506	47.414932
741.666321	951.726379	4070.740723	2422.874268	47.167076
741.987549	963.251587	4045.430420	2390.558594	46.308380
742.308777	961.443665	4009.386230	2380.954346	46.572750
742.629944	963.590515	3942.607910	2334.854004	46.030731
742.950989	983.589966	3911.422363	2347.847656	46.596165
743.272095	957.262878	3854.362061	2304.007324	46.485962
743.593140	957.263000	3853.344971	2325.814697	47.255283
743.914063	954.099243	3795.832520	2276.550293	46.536774
744.234985	940.766235	3784.872559	2258.471924	46.331097
744.555847	961.669617	3717.303467	2263.782227	47.252743
744.876648	973.646790	3715.382080	2256.889893	46.804050
745.197449	951.387390	3686.005127	2248.302246	47.425819
745.518188	978.731323	3669.847168	2235.647705	46.706142
745.838867	970.821899	3649.960205	2218.812012	46.581776
746.159485	975.002625	3641.260254	2198.699219	45.895660
746.480042	971.160828	3595.159668	2174.180176	45.846794
746.800537	954.438293	3580.809814	2195.987305	47.272408
747.121094	966.302368	3585.894531	2171.016602	45.988617
747.441528	953.534363	3563.973877	2186.156738	47.218960
747.761902	944.608032	3546.121582	2190.563965	47.893497
748.082275	950.935425	3530.980957	2190.902832	48.059906
748.402588	982.460083	3588.719238	2204.235840	46.878521
748.722839	972.968872	3582.504639	2183.219482	46.378006
749.043030	956.246094	3565.442627	2159.943115	46.132862
749.363159	950.257507	3547.816406	2176.101074	47.192135
749.683289	971.386841	3592.786621	2182.089355	46.185341
750.003357	952.969238	3550.528564	2171.920410	46.926788
750.323303	940.653320	3545.104248	2166.044678	47.049892
750.643311	956.246094	3554.822266	2167.852783	46.625790
750.963257	1012.402710	3579.341064	2237.455566	47.724277
751.283142	972.742859	3549.172607	2186.270264	47.101124
751.602905	944.833862	3471.885986	2154.067627	47.851555
751.922729	983.929016	3511.320313	2173.841309	47.080654
752.242432	963.703613	3459.909424	2159.491455	47.904217
752.562134	958.957886	3453.694580	2119.605225	46.523838
752.881714	954.325317	3428.045410	2120.622314	47.147491
753.201355	966.076355	3422.282715	2106.611328	46.434818
753.520874	948.788696	3408.610840	2130.113525	48.024803
753.840393	950.935425	3417.650391	2110.226807	46.997383
754.159851	963.364624	3394.374268	2097.685059	46.660465
754.479248	963.025574	3373.583496	2087.063965	46.629803
754.798523	969.918091	3392.905029	2082.205322	45.905624
755.117859	969.805176	3385.108643	2104.577637	46.982605
755.437134	948.223633	3350.985596	2071.019043	46.729366
755.756348	978.731445	3348.838623	2101.865479	47.387478
756.075500	974.437805	3343.753906	2088.645996	47.026577
756.394653	960.087891	3315.393066	2069.098145	47.085629
756.713623	966.867188	3283.303467	2046.725952	46.617245
757.032654	988.109558	3312.568359	2079.719238	46.961884
757.351624	955.342102	3277.314941	2063.674561	47.732361
757.670532	949.353638	3269.857666	2039.607422	46.983494
757.989441	954.551270	3268.840332	2031.924072	46.553078
758.308289	945.850769	3310.082764	2044.578857	46.472939
758.627014	967.658203	3308.500732	2072.939941	47.217262
758.945801	958.845032	3316.410156	2070.680176	47.160316
759.264404	957.375977	3325.901611	2089.888672	47.815090
759.583130	952.856323	3383.526611	2122.656006	48.126629
759.901611	957.715027	3362.510498	2092.148438	47.173798
760.220215	986.414734	3371.662598	2113.955566	47.271431
760.538635	978.166321	3395.503418	2115.198486	47.036560
760.857117	952.630249	3352.567139	2096.103027	47.645950
761.175537	991.047241	3392.904785	2129.661377	47.405567
761.493896	952.969360	3355.957031	2094.295410	47.496124
761.812134	966.528320	3377.086426	2095.877197	46.850101
762.130432	995.454224	3387.707031	2122.542969	47.114113
762.448608	970.369995	3382.171143	2115.198730	47.467789
762.766785	987.205688	3402.396484	2127.062744	47.195320
763.084900	991.386414	3490.868408	2174.180176	47.321556
763.402954	956.472046	3622.729248	2216.890869	47.272961
763.720947	948.675659	3790.635254	2295.306885	47.383900
764.038940	956.471863	3976.731934	2373.835693	46.928535
764.356750	983.702942	4203.957031	2498.352539	47.035095
764.674683	964.720398	4291.977539	2538.012207	47.284946
764.992493	939.071289	4403.387207	2567.390137	47.002609
765.310303	955.907104	4422.595703	2599.140869	47.400677
765.627930	937.263367	4311.525391	2526.261230	47.091713
765.945679	989.804504	4201.923340	2503.550049	47.126076
766.263306	975.002625	4047.464355	2412.252686	46.778450
766.580872	967.432129	3895.264893	2349.091064	47.190502
766.898376	953.195435	3798.431152	2285.250488	46.817036
767.215881	957.036804	3649.847656	2236.551514	47.515949
767.533325	970.934937	3580.696777	2198.021240	47.019093
767.850708	951.048462	3457.649658	2130.678711	47.060947
768.168030	964.720520	3409.062988	2119.718262	47.251881
768.485352	963.477539	3303.980957	2066.951660	47.146870
768.802551	952.969238	3261.722168	2043.449219	47.232426
769.119751	947.319641	3198.447021	2010.568970	47.231857
769.436890	942.009155	3179.012451	2007.857056	47.646236
769.753967	946.641785	3125.228760	1969.213623	46.937389
770.071045	950.144531	3106.585449	1957.462646	46.712067
770.388062	981.669250	3074.269531	1963.564209	46.922241
770.704956	956.133118	3040.372314	1933.960205	46.915298
771.021912	977.601379	3017.434814	1942.886963	47.321785
771.338684	955.342102	3014.948730	1912.605103	46.477951
771.655579	957.488953	2962.859863	1917.463867	47.870193
771.972351	983.589966	2975.628174	1928.085205	47.413509
772.289063	950.935425	2939.583984	1885.825806	47.011341
772.605713	972.855774	2916.985596	1878.481812	46.582588
772.922302	963.703491	2909.866699	1880.741577	47.120308
773.238831	973.194946	2918.341309	1863.001953	45.744991
773.555420	1010.029968	2909.641113	1907.520752	47.246029
773.871826	960.200806	2878.116699	1838.256592	45.781769
774.188293	1001.103638	2888.285400	1876.447876	46.383675
774.504639	975.906616	2850.207764	1859.612061	47.148529
774.820984	978.618347	2847.834717	1842.889404	46.237080
775.137207	968.675110	2816.988281	1849.329834	47.646400
775.453552	944.043091	2798.457520	1788.879517	45.558125
775.769592	952.291382	2829.416992	1822.098999	46.337208
776.085815	938.280457	2782.638916	1821.195068	47.871098
776.401855	956.924011	2758.684326	1801.647461	46.883232
776.717896	957.488953	2765.012207	1819.161377	47.671444
777.033875	969.353027	2756.650635	1812.833618	47.193069
777.349854	959.748840	2748.176025	1800.630859	47.017960
777.665710	954.325317	2735.747314	1799.274658	47.431171
777.981567	966.754272	2744.108887	1783.342773	45.944038
778.297363	944.155945	2711.793213	1781.534912	47.372784
778.613098	949.805481	2698.233887	1796.901978	48.449020
778.928772	953.873230	2692.245361	1767.524048	46.805332
779.244385	970.483032	2723.318115	1776.224365	45.967892
779.559998	960.652710	2689.872559	1797.692993	48.405659
779.875488	947.206726	2666.596191	1765.829346	47.611240
780.191040	1000.086731	2714.731201	1820.291260	47.835251
780.506470	950.596558	2684.787842	1764.360352	46.924686
780.821899	959.635742	2669.873291	1780.970093	48.024578
781.137207	950.822388	2658.800293	1762.439453	47.519176
781.452576	936.585632	2655.410400	1753.965210	47.554562
781.767822	965.963379	2670.664551	1757.128906	46.410805
782.083069	938.167480	2627.953613	1754.078125	48.284847
782.398193	938.845337	2622.642578	1731.818970	47.094364
782.713379	945.850769	2589.084473	1727.977173	47.596786
783.028381	960.878784	2591.005127	1730.915039	47.237827
783.343384	943.591125	2560.610840	1691.481079	46.251133
783.658386	945.850891	2562.079590	1700.520264	46.693226
783.973328	948.788696	2533.831787	1719.163818	48.602787
784.288086	980.539185	2548.520508	1730.689087	47.841763
784.602966	959.183960	2506.826904	1693.176025	47.426449
784.917725	957.036926	2531.685059	1691.141968	46.620258
785.232483	950.144531	2498.578369	1683.006592	47.329247
785.547119	980.426147	2494.736572	1696.565430	47.291447
785.861755	967.771118	2480.273926	1657.018555	45.569992
786.176270	941.444153	2455.641602	1657.131592	47.265133
786.490845	954.551147	2468.522949	1655.210571	46.279556
786.805298	919.862671	2407.959473	1655.323608	49.422924
787.119751	962.799500	2459.370605	1646.058350	45.654957
787.434143	954.890015	2436.771973	1643.911743	46.496399
787.748474	957.036926	2481.629639	1678.486938	47.320835
788.062744	960.200867	2455.302490	1664.928101	47.135742
788.377014	951.726379	2488.521973	1699.616455	48.665550
788.691162	961.669739	2511.459473	1683.232666	46.558762
789.005310	972.177856	2575.299561	1707.977539	45.897930
789.319397	958.392883	2570.215088	1704.813843	46.309135
789.633423	960.426758	2592.926025	1719.163818	46.477024
789.947449	961.330750	2595.186035	1741.423218	47.745506
790.261414	942.687012	2569.197754	1716.225952	47.558182
790.575256	959.183777	2549.650391	1711.254517	47.286171
790.889160	960.652710	2541.515381	1711.932251	47.523392
791.202881	952.178345	2502.419922	1689.108032	47.536442
791.516663	950.031616	2441.291748	1675.888428	48.674057
791.830322	957.149902	2448.523193	1670.012451	47.799068
792.144043	941.105286	2414.399658	1632.273560	46.913113
792.457581	985.397949	2415.981934	1641.086914	45.833656
792.771118	957.714966	2352.593506	1616.906616	47.257996
793.084656	1001.329468	2380.728516	1664.928101	48.107807
793.398071	972.064758	2349.768799	1621.313477	47.125412
793.711487	961.217773	2294.063965	1589.562744	47.143097
794.024841	936.133606	2287.623535	1572.500977	47.086353
794.338135	965.850464	2284.346924	1591.822510	47.476204
794.651428	946.189819	2240.279785	1556.117310	47.131767
794.964600	973.194702	2285.137939	1596.794189	47.532505
795.277771	963.477539	2255.872559	1565.721436	46.599056
795.590881	967.884155	2268.754150	1567.190552	46.069660
795.903931	990.934448	2294.516113	1608.884277	47.403999
796.216980	945.398926	2269.883789	1562.896729	46.621735
796.529907	971.273743	2339.825439	1617.245728	47.201138
796.842834	957.601929	2317.905273	1607.754395	47.794666
797.155701	977.940430	2322.876953	1608.658203	46.895729
797.468506	973.646790	2350.785645	1614.646973	46.545788
797.781250	978.618347	2358.017090	1631.030762	47.296871
798.093994	952.743347	2318.470215	1600.071045	47.398037
798.406677	953.873230	2298.357666	1589.449829	47.272888
798.719238	956.697937	2304.798340	1598.036987	47.573540
799.031921	963.251465	2273.047852	1592.161499	48.015862
799.344360	969.805054	2266.042480	1588.658813	47.742317
799.656860	979.522278	2260.957764	1550.919678	44.590412
799.969299	956.698120	2229.206787	1534.875000	45.435989
800.281677	961.104675	2241.862061	1528.660400	44.314072
800.593933	959.748718	2234.517334	1530.807251	44.797035
800.906250	949.466492	2185.365723	1515.553345	45.803642
801.218445	948.788574	2169.886230	1517.700073	46.590172
801.530640	964.155396	2166.835693	1522.784912	46.448711
801.842712	961.104797	2127.740723	1511.372803	47.167068
802.154846	964.155396	2152.485840	1530.242065	47.637142
802.466797	951.839478	2143.333252	1528.886353	48.430542
802.778870	954.890259	2120.735107	1521.880859	48.633453
803.090759	961.104675	2140.282715	1515.666260	47.029507
803.402649	950.031616	2089.436523	1481.994873	46.687817
803.714478	945.172729	2086.837891	1487.531494	47.505939
804.026245	957.488892	2105.255371	1501.429443	47.391220
804.337952	951.274536	2080.058594	1480.074219	46.846844
804.649658	971.386902	2084.013184	1482.107910	45.902298
804.961243	963.590637	2073.279053	1477.701294	46.329277
805.272888	965.737305	2088.758545	1478.605347	45.668598
805.584412	948.336609	2089.549561	1490.469360	47.504963
805.895874	954.777161	2078.702637	1471.938721	46.013863
806.207336	944.607910	2117.797363	1499.056519	47.259937
806.518677	962.234680	2109.888184	1491.599243	46.125816
806.830017	956.585083	2080.623291	1473.972412	46.029335
807.141357	942.574219	2106.724365	1480.412842	46.200108
807.452576	967.771301	2096.781006	1510.129883	48.038433
807.763733	959.522827	2081.979004	1479.396118	46.315685
808.074890	941.218262	2074.635010	1472.842529	46.904572
808.385925	963.138550	2106.724121	1516.118530	48.354927
808.697021	959.635742	2065.256348	1477.814209	46.867657
809.007935	977.714355	2072.035889	1508.434814	48.497673
809.318909	987.092651	2057.912109	1462.447510	44.391689
809.629822	961.443665	2051.583984	1466.402100	46.320496
809.940674	960.313660	2031.133179	1433.860596	44.222851
810.251404	955.568176	2022.093750	1453.182373	46.657501
810.562195	974.550598	2030.229126	1480.073975	47.886112
810.872864	944.494995	1992.829102	1425.160278	45.850391
811.183533	965.285461	1987.292603	1429.341064	45.406296
811.494080	962.460571	1979.835205	1445.950562	47.523300
811.804626	952.178345	1949.101318	1433.182617	48.248890
812.115112	942.009094	1943.338867	1419.962769	47.731895
812.425598	943.477905	1916.333984	1397.590454	46.678288
812.735962	936.246460	1913.509033	1388.663940	46.294361
813.046326	948.901550	1915.203857	1391.149658	45.767056
813.356628	975.680542	1956.558838	1440.527100	47.390850
813.666870	958.731750	1908.989502	1412.731201	47.776455
813.976990	961.217651	1897.803345	1394.313599	46.242001
814.287170	956.472046	1899.498047	1391.375854	46.117901
814.597290	962.008606	1914.639038	1415.556030	47.610008
814.907349	941.218262	1888.650635	1398.381104	48.252819
815.217346	989.013489	1937.350342	1445.837646	48.171085
815.527283	960.539856	1896.673218	1393.183594	46.216038
815.837158	942.348022	1875.205078	1368.777588	45.712208
816.147034	959.296875	1886.278076	1401.884033	47.744999
816.456787	965.285461	1902.661865	1399.285278	46.299419
816.766541	967.997192	1899.497803	1403.126953	46.712772
817.076233	966.867188	1929.441040	1414.765259	46.531296
817.385925	989.578613	1887.973267	1394.539551	45.076061
817.695496	998.504761	1949.214478	1438.154175	46.244339
818.005066	969.240234	1919.497681	1406.516724	46.016632
818.314514	965.059387	1917.915649	1404.030762	46.069004
818.623962	949.579712	1887.181885	1404.595947	48.529778
818.933350	969.579102	1921.644287	1410.132446	46.273445
819.242737	986.753784	1953.055908	1449.340576	47.871861
819.552002	966.641235	1973.055420	1431.035889	46.143494
819.861328	969.240112	2016.444336	1451.487061	46.050900
820.170471	953.647095	2044.127197	1450.809326	45.591133
820.479675	969.353027	2095.989746	1493.632813	46.534946
820.788696	967.545105	2150.564941	1519.621216	46.666683
821.097839	963.816589	2233.613525	1552.275635	46.342770
821.406738	980.426147	2368.412598	1628.657715	46.703018
821.715698	958.505859	2435.867920	1656.340820	47.235203
822.024597	960.652649	2722.301514	1778.032471	46.398563
822.333435	987.318542	3276.185059	2054.861084	46.640663
822.642273	954.325195	4062.153076	2443.664551	47.922195
822.950989	966.189148	4827.104492	2799.926270	47.494881
823.259705	961.217773	5504.375000	3105.116455	47.189621
823.568359	968.336060	6007.187012	3352.792969	47.321442
823.876953	988.222534	6433.051758	3595.611816	47.887440
824.185486	941.557251	6535.986328	3612.447754	47.741970
824.494019	965.511353	6444.351074	3541.037109	47.008598
824.802429	954.099243	5915.438477	3333.697754	47.962826
825.110840	953.308289	5387.768066	3087.828613	48.134842
825.419189	964.268433	5030.941406	2875.517578	46.997860
825.727478	990.595520	4722.135742	2752.018066	47.203632
826.035767	960.313782	4420.674805	2594.281738	47.219582
826.343933	959.861816	4257.967285	2516.544189	47.199291
826.652100	960.539734	4011.081299	2389.880371	46.855309
826.960144	949.918335	3877.638184	2334.514893	47.292660
827.268250	958.279907	3796.510498	2297.453613	47.183403
827.576233	980.765259	3829.843262	2350.898682	48.090412
827.884155	967.545288	3816.848877	2304.346191	46.916756
828.192017	952.856323	3788.262207	2306.831787	47.752441
828.499878	958.279968	3747.246094	2292.708008	47.846691
828.807678	953.421204	3743.178223	2274.742432	47.363308
829.115479	954.890259	3677.643799	2264.686035	48.105560
829.423096	946.867798	3483.750000	2190.563965	49.024590
829.730835	947.206726	3267.484863	2056.668945	47.815914
830.038330	963.703491	3047.264648	1937.011108	46.713661
830.345947	956.359070	2892.014648	1871.702393	47.288544
830.653442	950.935547	2743.204834	1786.732788	46.633465
830.960876	951.500305	2627.614746	1742.778931	47.209103
831.268250	952.517456	2524.679199	1696.452515	47.319244
831.575623	956.245972	2401.518555	1645.606689	47.697628
831.882874	945.963867	2310.899414	1570.806030	45.778145
832.190125	949.240540	2226.495117	1527.304565	45.258324
832.497314	969.127136	2155.762451	1531.711182	47.410023
832.804504	1007.770142	2086.724854	1508.434937	46.402763
833.111572	965.737488	2024.127563	1437.815308	44.603386
833.418640	945.172852	2065.708496	1460.300537	45.971558
833.725586	959.974915	2109.097168	1513.632568	48.180916
834.032532	964.946411	2208.755371	1560.636963	47.892448
834.339417	964.946411	2372.706055	1616.906494	46.311890
834.646301	950.483521	2461.969238	1660.182251	46.953716
834.953003	972.290833	2588.745361	1741.875000	47.609390
835.259827	976.132446	2629.648438	1742.214111	46.330467
835.566467	975.680542	2672.811035	1777.919312	47.270306
835.873108	966.754272	2644.450439	1772.043945	47.999733
836.179688	952.856323	2565.017334	1707.864624	46.832066
836.486267	939.297363	2496.431641	1677.243896	47.391323
836.792664	940.427246	2384.795898	1653.741821	49.385906
837.099121	963.138489	2309.882813	1599.844971	47.277454
837.405518	977.827332	2255.194824	1583.235107	47.394958
837.711792	961.895630	2158.361084	1522.558838	46.859959
838.018127	945.850891	2062.883789	1469.453003	46.874367
838.324341	955.907104	2023.788696	1460.639771	47.264854
838.630554	942.687134	1961.417358	1435.216553	48.347385
838.936646	946.867798	1899.498047	1380.641602	45.534328
839.242737	954.890137	1841.759521	1367.308472	46.502716
839.548767	970.596008	1796.676025	1327.422607	43.195160
839.854797	978.957336	1753.061279	1335.445068	46.051662
840.160645	965.624207	1751.705078	1320.191284	45.105675
840.466553	948.562683	1732.722900	1305.276489	45.489914
840.772400	965.737183	1735.773804	1304.598633	44.005886
841.078186	962.347534	1749.784546	1304.824463	43.492611
841.383850	964.155579	1751.931396	1317.705444	44.879501
841.689575	951.387512	1770.801025	1325.727783	45.683926
841.995178	962.912476	1749.558594	1330.699463	46.753803
842.300781	944.269043	1747.863525	1309.343994	45.430244
842.606262	964.155457	1722.892334	1314.315796	46.150433
842.911743	960.087585	1685.040405	1316.236572	49.127193
843.217163	949.353638	1653.628662	1285.615967	47.745884
843.522583	947.997681	1630.578735	1271.265991	47.359695
843.827881	947.884766	1609.901367	1250.249634	45.673306
844.133179	947.771790	1587.189819	1241.775146	45.979836
844.438354	949.918579	1562.105835	1231.831909	46.050179
844.743530	957.827942	1553.631470	1239.967529	47.354469
845.048645	973.307800	1559.054932	1232.396973	44.232258
845.353760	950.596497	1502.559570	1193.979858	44.094139
845.658752	992.742188	1528.547607	1216.013306	41.670185
845.963745	1004.380371	1494.762939	1226.069336	45.207352
846.268555	970.822083	1434.651611	1172.172607	43.410458
846.573486	970.256958	1433.860596	1164.150269	41.823078
846.878296	1000.764832	1449.340576	1192.285156	42.695202
847.183044	976.584656	1402.787964	1160.082642	43.054096
847.487732	959.296875	1422.109375	1153.754883	42.016586
847.792419	953.308411	1420.075562	1165.280029	45.412712
848.097046	974.550659	1403.353027	1154.771851	42.028965
848.401611	961.669739	1392.166870	1149.913330	43.727024
848.706055	962.121704	1379.737793	1156.127686	46.455582
849.010559	944.946899	1355.331543	1125.733154	44.052879
849.314941	972.855774	1384.596436	1166.635986	47.063656
849.619324	942.122192	1362.450073	1151.608154	49.838703
849.923584	952.178406	1341.659546	1112.626221	41.195271
850.227844	958.844910	1336.801025	1129.461670	45.141949
850.532043	944.720886	1349.117065	1136.806152	47.499279
850.836243	955.116333	1348.665039	1120.761475	42.090126
851.140320	966.415222	1356.913330	1122.004395	39.843773
851.444397	962.008606	1355.783569	1135.111450	43.959839
851.748352	971.273926	1341.094727	1129.122803	42.682529
852.052307	965.059448	1358.834473	1146.071533	45.968403
852.356140	957.601868	1339.851807	1118.388794	42.063297
852.660095	971.838867	1343.693481	1133.981567	43.603790
852.963806	982.686035	1360.642334	1137.823242	41.046333
853.267578	1032.063232	1400.641113	1198.273682	45.095070
853.571228	989.804565	1334.992920	1141.438843	43.927982
853.874939	949.466614	1327.761841	1122.004272	45.609261
854.178467	951.613586	1321.999268	1121.213501	45.790085
854.482056	963.816406	1335.784180	1118.727539	41.646385
854.785461	968.562317	1344.597412	1126.863037	42.097324
855.088989	963.138550	1329.343506	1129.913818	45.541512
855.392273	971.386902	1322.338135	1118.727539	41.983223
855.695679	951.274414	1326.744873	1128.331787	47.156139
855.998901	997.826782	1352.507080	1157.822754	45.109913
856.302185	967.884155	1305.728271	1116.354736	43.946476
856.605286	958.957886	1320.982178	1138.162109	49.500607
856.908508	958.844849	1314.993896	1123.812134	46.319733
857.211548	961.330688	1307.310303	1112.286987	43.631557
857.514587	952.630371	1299.174927	1093.530640	40.658630
857.817566	952.517395	1297.931885	1108.897339	45.273129
858.120483	966.415344	1307.310181	1112.287109	42.790840
858.423340	976.471558	1321.999268	1118.840576	41.203358
858.726196	964.155579	1304.711548	1103.021851	40.776344
859.028931	976.358521	1345.614258	1127.654053	40.973103
859.331665	950.596497	1284.712036	1110.705322	47.920197
859.634277	970.031067	1319.287231	1119.405640	42.769344
859.936890	970.934753	1300.304932	1104.716675	40.617496
860.239441	968.562195	1303.807495	1107.202515	41.354889
860.541992	958.279907	1312.168701	1101.213989	40.389549
860.844421	959.296753	1283.695068	1098.615234	42.946735
861.146912	951.726379	1290.587646	1099.406006	43.581146
861.449219	947.206726	1269.345215	1086.186157	43.142757
861.751526	984.719910	1278.497314	1112.965088	43.653862
862.053772	1002.685547	1309.683105	1139.857056	44.681629
862.355957	975.115601	1306.406372	1119.744629	43.656219
862.658081	962.912476	1301.208618	1112.287109	44.154991
862.960266	946.528931	1276.124756	1093.078735	44.463490
863.262207	949.692566	1287.084839	1110.253418	47.588776
863.564331	966.076294	1285.615845	1113.191162	46.039642
863.866211	967.319153	1280.079346	1114.320923	47.001431
864.168091	949.918579	1274.203857	1091.835693	43.763046
864.469910	944.833862	1260.870728	1084.943115	44.333199
864.771729	957.827820	1266.859375	1093.643555	43.948826
865.073425	946.754761	1289.796753	1096.468384	43.642944
865.375122	958.505859	1273.525879	1087.542236	40.961327
865.676819	935.568665	1276.576660	1088.784912	44.930397
865.978333	955.229187	1264.712402	1089.575928	43.410027
866.279907	991.499329	1319.174438	1121.552368	39.689629
866.581360	967.093140	1285.954834	1102.005005	42.310467
866.882874	940.314148	1293.073364	1092.626709	43.177486
867.184143	951.048523	1258.610962	1100.197144	48.493771
867.485535	945.963745	1275.107666	1089.802002	43.700718
867.786743	981.669128	1302.903564	1114.773071	41.435143
868.088013	995.002075	1312.733887	1130.139771	42.532001
868.389160	974.324585	1282.452148	1105.281616	42.500916
868.690308	942.122192	1276.576416	1100.649170	47.398708
868.991333	939.636353	1274.768677	1086.864014	43.931202
869.292358	950.370483	1283.921021	1088.446045	41.395695
869.593323	987.883606	1320.191284	1151.382202	49.200970
869.894287	941.557251	1277.706543	1095.338623	45.747940
870.195068	973.194641	1304.259644	1138.953125	50.068260
870.495911	963.816284	1276.576538	1102.795898	44.436470
870.796692	960.313843	1267.198364	1101.213989	45.913082
871.097412	966.076294	1284.033936	1097.824219	41.435684
871.398010	957.827942	1294.429321	1093.078735	40.181293
871.698669	971.499878	1267.198486	1083.587158	37.905922
871.999207	962.912598	1267.085205	1091.835571	42.384808
872.299683	947.093750	1276.463623	1094.434570	44.734154
872.600159	963.025574	1278.949585	1099.745117	43.276085
872.900574	950.031555	1258.158936	1096.807373	47.634785
873.200867	962.008667	1260.870850	1088.332886	42.268387
873.501160	958.279907	1270.701050	1083.361572	40.036236
873.801392	960.200806	1278.949463	1096.468384	42.750793
874.101624	955.794128	1293.186523	1108.671509	45.311447
874.401733	956.810913	1306.632202	1107.315430	43.023258
874.701843	969.353027	1287.649658	1117.823730	46.645390
875.001831	968.223145	1295.559204	1106.072510	42.112492
875.301819	958.053894	1286.293701	1119.405518	49.156628
875.601746	976.019531	1309.005127	1113.417114	41.262321
875.901672	966.302246	1308.440308	1109.123291	41.743687
876.201477	947.771667	1293.638184	1106.524536	45.900040
876.501282	959.183899	1282.791138	1094.434570	41.794701
876.800964	966.754395	1305.389160	1118.840576	44.911568
877.100647	956.698242	1282.791138	1095.677368	42.619488
877.400208	970.256958	1282.113037	1111.270264	45.217430
877.699829	987.092773	1343.693481	1148.105469	45.152096
877.999329	947.884766	1299.852783	1110.027222	46.067383
878.298767	963.364441	1295.220093	1114.773071	45.624847
878.598206	949.918579	1314.767822	1132.625610	50.077404
878.897583	942.912903	1298.723022	1106.750610	46.046387
879.196838	951.048462	1303.468506	1111.835205	45.623608
879.496155	947.658569	1309.909180	1113.756226	45.851589
879.795288	974.550659	1340.190796	1136.580200	44.313938
880.094482	963.590637	1351.263916	1146.975586	47.303993
880.393555	951.839478	1341.659424	1139.744019	48.202908
880.692627	958.505737	1373.297119	1143.585693	44.620010
880.991577	948.675781	1399.511230	1179.178101	51.127815
881.290588	947.206665	1468.661987	1195.109863	47.540642
881.589355	944.268921	1561.427734	1235.108643	47.125587
881.888306	973.759766	1743.683228	1333.524292	46.727310
882.187012	959.183777	1987.179321	1428.437134	45.647408
882.485840	956.245972	2202.879883	1549.790039	47.611736
882.784424	965.737305	2464.906982	1674.645264	47.286705
883.083069	970.257019	2685.579102	1773.512695	46.828274
883.381592	979.974304	2881.393311	1887.634033	47.735916
883.680176	953.986145	3010.542480	1912.152954	46.590836
883.978638	947.658569	3078.901611	1966.049805	47.783905
884.277039	954.664246	3086.585449	1969.552490	47.604401
884.575378	978.166321	3034.609131	1955.428467	47.521969
884.873779	925.625366	2884.557129	1880.741577	48.756992
885.171997	961.330750	2786.480225	1831.251343	47.662979
885.470276	989.013550	2724.335449	1815.658203	47.636387
885.768311	947.884644	2585.920410	1752.044312	49.092926
886.066528	949.014526	2474.059326	1668.882813	47.203091
886.364502	939.523438	2358.695068	1617.584473	47.778648
886.662537	929.354126	2213.952881	1556.795166	48.843349
886.960510	950.144531	2107.515137	1505.610107	47.993752
887.258362	954.551270	1974.637329	1433.182739	46.920696
887.556213	946.867798	1834.302002	1360.077393	46.562279
887.854004	950.822449	1718.711670	1313.411865	47.218975
888.151733	975.680542	1661.876953	1300.304932	47.307796
888.449402	980.765320	1605.042480	1251.492432	43.366493
888.747009	956.698059	1524.027832	1234.543823	48.974297
889.044617	961.104797	1479.509033	1199.968506	46.076729
889.342163	952.404419	1436.459351	1164.150146	43.744152
889.639648	952.743347	1401.093018	1173.189697	49.168400
889.937012	937.263672	1379.059814	1149.235474	47.979549
890.234436	971.500000	1390.697998	1154.997925	43.773567
890.531738	949.014648	1341.885620	1122.908203	44.262257
890.829041	948.788574	1323.241943	1109.688232	42.969212
891.126221	942.800110	1330.699463	1110.592285	43.256626
891.423401	951.952454	1286.519775	1111.270264	47.619061
891.720459	950.596497	1290.474609	1106.185669	45.777931
892.017578	960.087708	1299.287842	1092.965698	39.173920
892.314514	956.020020	1257.593994	1089.349976	44.211361
892.611511	961.895630	1281.548340	1102.682983	44.043846
>>>>>End Processed Spectral Data<<<<<
