Jaz Data File
++++++++++++++++++++++++++++++++++++
Date: Mon Sep 17 15:00:11 2018
User: jaz
Dark Spectrum Present: Yes
Reference Spectrum Present: Yes
Processed Spectrum Present: Yes
Spectrometers: JAZA3098
Integration Time (usec): 232000 (JAZA3098)
Spectra Averaged: 20 (JAZA3098)
Boxcar Smoothing: 0 (JAZA3098)
Correct for Electrical Dark: No (JAZA3098)
Strobe/Lamp Enabled: Yes (JAZA3098)
Correct for Detector Non-linearity: No (JAZA3098)
Correct for Stray Light: No (JAZA3098)
Number of Pixels in Processed Spectrum: 2048
>>>>>Begin Processed Spectral Data<<<<<
W	D	R	S	P
190.313904	0.000000	0.000000	0.000000	0.000000
190.695511	0.000000	0.000000	0.000000	0.000000
191.077087	931.613953	922.574585	913.987183	195.000031
191.458633	937.941528	933.760742	920.992676	405.398712
191.840149	949.692566	965.172241	953.534302	24.817936
192.221634	959.183777	945.285950	944.269165	107.316139
192.603088	975.228638	984.154968	975.906616	7.595265
192.984528	1000.425598	1008.448059	1004.380371	49.296257
193.365921	995.792969	1019.521179	998.052856	9.524055
193.747284	988.222656	987.544617	986.414856	266.621643
194.128616	988.109558	1000.086731	986.414673	-14.150963
194.509918	992.629272	1016.244507	987.205872	-22.965687
194.891190	997.487976	1004.154480	985.510925	-179.660141
195.272446	994.663208	1002.572571	986.640808	-101.429153
195.653656	1029.125610	1043.475464	1022.119812	-48.821392
196.034836	1014.323608	1014.436646	986.979675	-24190.226563
196.416000	979.070435	991.838257	975.793579	-25.664951
196.797104	1010.707825	1010.255859	997.375000	2949.966309
197.178192	1007.431152	1025.509766	991.499390	-88.124916
197.559265	985.623718	1003.137512	979.409363	-35.482635
197.940292	971.161011	990.256470	962.686646	-44.378956
198.321304	975.906433	979.409363	961.895630	-399.973877
198.702271	979.748352	985.736816	964.607422	-252.834946
199.083221	983.477051	978.279419	978.957397	86.956009
199.464111	971.951965	967.997192	959.070679	325.714935
199.844986	977.714478	977.714478	969.917969	0.000000
200.225830	960.991821	986.188782	941.105286	-78.924347
200.606659	962.912476	1007.318054	958.505859	-9.923565
200.987427	1012.063843	1080.988525	1007.770142	-6.229555
201.368195	960.087708	998.956909	970.369934	26.453403
201.748917	984.832825	993.759277	988.222778	37.976494
202.129608	964.268372	989.239563	962.460632	-7.239299
202.510284	976.019531	998.617859	948.901672	-119.999405
202.890915	953.195190	1000.199829	965.285461	25.721443
203.271515	972.064819	995.341003	964.494446	-32.524117
203.652100	970.596008	999.069702	972.855774	7.936327
204.032623	969.692078	979.183289	940.201294	-310.716766
204.413147	961.895691	988.109680	951.048462	-41.379543
204.793625	970.708984	1001.216614	960.313660	-34.074509
205.174088	956.811035	986.075806	946.302856	-35.907265
205.554504	950.483398	972.403809	955.342163	22.165482
205.934906	949.918457	974.550476	926.981445	-93.118683
206.315247	957.375854	973.759766	934.664734	-138.618439
206.695587	958.844849	992.629211	957.375977	-4.347787
207.075882	972.742859	986.527710	960.765747	-86.886047
207.456146	939.975281	971.725891	936.472534	-11.032061
207.836380	965.737427	997.375000	976.923523	35.356998
208.216599	961.104614	995.679993	943.252075	-51.633678
208.596771	952.291504	966.980164	941.218079	-75.387581
208.976913	973.420715	1000.086731	974.211731	2.966381
209.357025	1026.300659	1039.746704	1007.205078	-142.016342
209.737106	963.703430	981.443054	958.505981	-29.298529
210.117157	967.319214	987.883606	959.748657	-36.813908
210.497177	971.499817	966.415344	951.952454	384.452118
210.877167	968.336121	984.606934	948.223633	-123.610832
211.257126	967.771301	988.335632	938.845398	-140.660553
211.637070	992.629272	1016.922546	970.143921	-92.557930
212.016968	964.607422	1000.538757	961.443665	-8.805009
212.396835	965.285278	984.606934	960.426636	-25.146099
212.776672	959.409973	976.923645	943.817017	-89.033051
213.156464	962.799500	985.510925	950.596497	-53.730679
213.536255	945.850891	981.104187	957.601929	33.333160
213.916000	962.912598	983.929016	967.432129	21.504765
214.295700	956.924011	980.426270	959.409790	10.576766
214.675400	965.172363	979.635254	951.500366	-94.531563
215.055038	945.624878	979.522339	949.466492	11.333043
215.434662	975.002625	982.347046	947.319702	-376.924469
215.814240	992.742310	1020.086121	981.443176	-41.322453
216.193787	960.878723	1002.233582	947.206726	-33.060196
216.573334	980.087280	994.437134	957.940918	-154.331619
216.952820	965.963257	995.002075	948.336731	-60.699875
217.332275	953.421204	976.810547	947.658691	-24.637341
217.711716	967.771179	1001.216675	958.279968	-28.378143
218.091125	952.404297	988.335632	947.884644	-12.578585
218.470505	1018.165344	1050.367798	1002.007629	-50.175415
218.849854	958.166992	996.018921	947.997742	-26.865871
219.229156	970.595886	985.397827	964.946411	-38.167122
219.608444	959.522827	982.460144	956.020203	-15.270419
219.987671	998.391968	1023.023926	978.731445	-79.817131
220.366898	963.364624	1008.109009	966.528320	7.070600
220.746094	990.143433	1010.481934	967.206177	-112.777512
221.125244	981.330200	1009.351868	980.539185	-2.822871
221.504364	961.104797	998.165894	962.460571	3.658213
221.883469	944.269043	1004.719360	943.817078	-0.747664
222.262512	948.675781	997.261902	949.579712	1.860471
222.641556	954.551147	973.872864	949.579590	-25.730413
223.020554	940.992065	996.019043	964.381470	42.505341
223.399521	958.618774	997.600891	951.500366	-18.260702
223.778473	965.850403	982.799133	943.026184	-134.666245
224.157364	953.421265	986.075806	949.579590	-11.764596
224.536240	967.093140	967.545105	948.675598	-4074.989990
224.915085	951.387390	984.154968	942.461121	-27.241163
225.293900	971.499817	983.250977	959.522766	-101.922287
225.672684	970.595886	997.148926	953.873230	-62.978313
226.051437	970.369995	1005.962219	967.545105	-7.936818
226.430161	938.506470	990.256470	935.116577	-6.550517
226.808838	944.268921	997.600891	947.319702	5.720361
227.187500	980.765137	1048.786011	990.256470	13.953559
227.566132	962.234680	1010.142883	957.150024	-10.613330
227.944717	969.240112	1019.521301	958.279785	-21.798067
228.323288	978.731262	1031.837280	970.143921	-16.170185
228.701813	951.839478	1022.458984	966.528198	20.799807
229.080307	953.986206	1021.894165	955.003113	1.497478
229.458786	972.855835	1043.814331	964.833374	-11.305850
229.837234	957.489075	1041.893555	953.647278	-4.551651
230.215637	945.285950	1037.938721	952.404480	7.683019
230.594009	949.692566	1062.344849	972.290894	20.060247
230.972351	942.009155	1049.915894	968.675171	24.712095
231.350662	969.014038	1039.972778	971.499878	3.503219
231.728958	938.054504	1049.125000	953.986206	14.343775
232.107193	966.641235	1053.644775	971.047974	5.065011
232.485413	952.065308	1036.469971	958.505981	7.630709
232.863602	1060.424072	1156.127808	1075.677979	15.938674
233.241760	957.828003	1050.706787	965.511353	8.272449
233.619873	942.913208	1041.667603	949.014648	6.178399
233.997986	988.674683	1057.260376	994.550171	8.566638
234.376038	968.223267	1055.113525	980.765015	14.434010
234.754074	966.641235	1070.254517	964.155396	-2.399152
235.132065	958.844849	1044.605225	970.934937	14.097522
235.510025	969.579102	1050.819824	985.736938	19.888840
235.887970	963.364563	1051.610962	972.403931	10.243327
236.265869	971.499817	1051.045898	974.550598	3.835238
236.643738	967.093262	1058.842285	980.539185	14.655113
237.021576	950.483582	1064.491821	965.059387	12.784870
237.399384	941.896118	1054.322510	966.415405	21.809191
237.777161	969.918091	1086.637939	1000.086609	25.846947
238.154892	954.890259	1066.525635	953.873230	-0.911027
238.532623	956.923950	1080.875610	965.285278	6.745636
238.910309	940.879211	1060.989136	973.533569	27.187061
239.287949	951.839355	1070.141479	964.155457	10.410719
239.665573	947.319702	1071.384277	974.324707	21.766893
240.043167	960.313660	1081.101563	976.358582	13.283550
240.420715	955.003113	1090.705811	972.516968	12.906048
240.798233	965.172363	1088.671875	967.884094	2.195742
241.175735	966.528320	1097.033447	959.748901	-5.194753
241.553207	944.381958	1097.937256	946.641724	1.471630
241.930634	944.720825	1092.513672	975.115601	20.565796
242.308014	963.364563	1141.777832	970.369995	3.926520
242.685394	951.726379	1151.269165	974.889648	11.608171
243.062729	969.014160	1189.234375	997.826965	13.083633
243.440033	970.031067	1200.985596	987.544739	7.583169
243.817307	977.036499	1228.894287	989.691528	5.024673
244.194534	971.161011	1214.318359	994.098267	9.433092
244.571747	982.346985	1238.046509	1021.328918	15.245212
244.948929	960.652710	1230.137085	993.872192	12.327053
245.326065	965.172485	1192.398071	989.465515	10.691151
245.703186	979.974426	1227.312256	997.826843	7.217827
246.080261	950.370605	1193.075928	974.098633	9.776476
246.457306	947.319702	1208.216797	973.194824	9.917750
246.834320	969.466125	1234.543701	986.527832	6.436496
247.211304	968.901184	1268.780151	997.374878	9.495062
247.588257	972.064758	1307.197388	1009.804016	11.260992
247.965195	971.612976	1356.235596	1027.317627	14.482937
248.342087	945.850891	1386.743164	1019.973267	16.811901
248.718933	950.935547	1401.771240	998.165894	10.476177
249.095764	939.297241	1419.171631	1004.154297	13.515424
249.472549	955.794067	1411.262451	1027.317627	15.703299
249.849319	951.839478	1370.020508	1000.538696	11.645487
250.226044	970.144043	1356.009521	1018.391418	12.503677
250.602737	954.212219	1328.439697	1019.069214	17.330902
250.979401	965.285339	1295.785034	1003.363464	11.521379
251.356033	979.409302	1306.519287	1012.176758	10.017260
251.732635	971.612976	1286.180908	1004.945313	10.596229
252.109207	967.658203	1280.757202	1012.176880	14.218722
252.485748	971.048035	1292.960327	1010.142944	12.144585
252.862244	949.127625	1293.751343	979.974304	8.950829
253.238724	962.347534	1301.660767	999.860840	11.055656
253.615158	942.800110	1297.932129	971.838684	8.176839
253.991577	962.573608	1315.897705	994.663208	9.082200
254.367950	955.455078	1317.705566	977.488586	6.082396
254.744308	986.979797	1334.880127	1042.684326	16.011635
255.120621	956.359009	1302.338623	1001.442688	13.030733
255.496902	958.505981	1272.395874	979.974304	6.839444
255.873154	953.195190	1272.734863	992.177368	12.199480
256.249390	946.867859	1259.514893	970.143921	7.444837
256.625549	956.697937	1287.762695	976.810547	6.075129
257.001709	992.403198	1324.598022	1019.860168	8.265322
257.377838	957.149902	1332.959229	1005.736328	12.928478
257.753937	955.568176	1321.095337	1011.385864	15.270462
258.129974	949.353699	1330.134399	989.917603	10.652825
258.506012	941.895996	1374.766113	988.561523	10.780492
258.881989	968.223145	1401.657959	1011.837891	10.062585
259.257935	962.799622	1420.527588	1022.345886	13.009094
259.633911	948.788696	1483.237915	994.324097	8.520061
260.009766	960.087708	1530.016357	1010.933899	8.921501
260.385651	1006.188293	1620.296265	1066.299561	9.788387
260.761475	950.144409	1634.759521	1019.973267	10.199725
261.137299	962.121582	1704.135986	1041.780518	10.735497
261.513062	939.862305	1729.333008	1039.407837	12.609148
261.888763	995.454102	1758.823975	1076.016846	10.553566
262.264496	957.941040	1707.186768	1021.329224	8.460266
262.640137	962.912476	1668.091797	1016.583374	7.610958
263.015808	950.596558	1592.500488	1008.900085	9.082906
263.391388	988.335632	1595.438232	1045.283325	9.380242
263.766998	993.307251	1572.161987	1056.130371	10.853003
264.142517	977.940430	1549.789917	1034.661865	9.918945
264.518036	954.890137	1505.610229	1005.284363	9.150606
264.893524	971.612915	1499.169678	1026.865723	10.473339
265.268951	983.815918	1536.004883	1039.859741	10.149392
265.644379	947.093628	1469.566040	989.013550	8.023376
266.019745	958.957886	1465.837280	996.922852	7.489941
266.395111	971.047852	1485.158813	1013.871582	8.329667
266.770386	977.714355	1519.734131	1032.967163	10.193873
267.145691	963.816589	1529.790161	1009.578125	8.085455
267.520966	970.369995	1560.975830	1016.131531	7.748236
267.896149	978.505371	1593.404541	1016.357544	6.155834
268.271362	969.917969	1588.432861	1024.266846	8.786996
268.646515	943.139038	1600.974854	1000.086731	8.656825
269.021606	974.889771	1641.313110	1024.379883	7.426228
269.396729	959.296875	1639.730835	1006.188293	6.891399
269.771790	940.088196	1627.188965	1030.594360	13.172182
270.146790	941.218262	1647.188477	1014.775696	10.419339
270.521790	962.799622	1651.369141	1022.007019	8.598609
270.896759	965.624390	1659.730225	1030.029419	9.278849
271.271667	974.776550	1703.457764	1020.764160	6.311074
271.646545	948.449585	1716.225952	1017.600403	9.006636
272.021423	952.178528	1781.422119	998.956848	5.641083
272.396271	940.653198	1819.726196	1014.662598	8.419027
272.771027	959.974792	1864.244751	1032.741333	8.046993
273.145813	963.025757	1906.390625	1035.678955	7.701495
273.520538	980.539185	1935.881226	1043.362549	6.576007
273.895233	978.279175	1930.683838	1050.480835	7.580986
274.269897	959.296875	1881.080322	1045.848145	9.389544
274.644501	966.302368	1844.810181	1034.323120	7.742760
275.019135	987.657593	1842.324219	1047.204102	6.967221
275.393677	949.692383	1814.867554	1029.012451	9.168094
275.768250	948.110535	1814.076416	1020.651184	8.376848
276.142700	932.630859	1816.336304	1022.459167	10.164960
276.517212	955.907043	1854.640625	1027.204590	7.933113
276.891632	962.686523	1859.273193	1052.627686	10.031507
277.266022	954.099304	1873.623047	1027.882568	8.024074
277.640381	954.890137	1922.548218	1050.706787	9.901912
278.014740	981.443176	1929.779541	1057.260376	7.994758
278.389038	955.794128	1957.349609	1044.153320	8.822196
278.763336	954.890259	1966.727905	1046.187256	9.022890
279.137543	944.608032	1958.140625	1040.424561	9.453719
279.511780	949.918579	1956.219482	1042.684326	9.218490
279.885925	954.325195	1977.236328	1059.407227	10.272840
280.260101	956.020020	1952.491455	1021.668091	6.588054
280.634186	966.415161	1990.230469	1034.775024	6.676972
281.008301	985.171875	2048.533691	1055.904419	6.651785
281.382294	956.132935	2043.901001	1049.124878	8.548876
281.756348	970.144043	2131.017334	1050.932861	6.959314
282.130280	943.591125	2177.682861	1049.350952	8.569851
282.504272	971.386902	2266.381348	1073.870117	7.913796
282.878143	955.681152	2271.013916	1061.667114	8.057730
283.252014	970.708862	2323.780762	1071.723267	7.465561
283.625854	1001.555542	2400.162598	1099.632080	7.012444
283.999664	968.675171	2376.095947	1065.282715	6.864155
284.373444	962.121460	2407.733643	1062.231934	6.925127
284.747192	963.929565	2369.429199	1071.384277	7.645303
285.120941	983.476929	2396.885986	1089.575928	7.506602
285.494629	936.472534	2404.569580	1059.972046	8.412217
285.868256	956.811035	2435.642334	1080.197510	8.343513
286.241882	982.234070	2489.990967	1070.141357	5.830336
286.615448	966.867188	2542.645020	1098.050415	8.324983
286.988983	938.958374	2560.158691	1062.458008	7.617790
287.362518	985.171997	2609.875000	1104.264893	7.330133
287.736023	962.686646	2639.930664	1073.418213	6.601995
288.109467	959.070923	2646.145020	1076.355835	6.951972
288.482880	973.985718	2634.394043	1088.784912	6.913913
288.856262	979.748230	2638.461426	1109.010376	7.792918
289.229584	976.923340	2594.508301	1068.333618	5.651034
289.602936	966.302429	2591.457275	1085.621216	7.341995
289.976227	991.612183	2607.163086	1092.400635	6.238643
290.349457	958.618958	2641.625488	1078.728760	7.136621
290.722687	958.279968	2656.427490	1080.649536	7.206062
291.095886	949.579590	2738.120117	1090.479736	7.877940
291.469025	979.635132	2819.812744	1103.247803	6.717432
291.842133	954.438171	2826.140381	1096.694214	7.600357
292.215240	969.805054	2885.460693	1110.592529	7.349310
292.588287	952.743286	2847.043457	1078.163696	6.620936
292.961304	944.608032	2851.111572	1103.360962	8.326915
293.334320	964.607544	2858.003662	1095.903320	6.934406
293.707245	955.455078	2837.100586	1097.598145	7.554190
294.080170	968.110168	2845.235840	1094.886475	6.753746
294.453064	940.540344	2910.318848	1098.615112	8.025002
294.825897	965.963257	2972.690186	1091.496704	6.255632
295.198730	935.229675	3035.513428	1104.377808	8.053585
295.571533	950.596375	3084.099854	1097.033447	6.863690
295.944275	957.150024	3153.476318	1116.580811	7.258976
296.317017	985.171753	3263.416992	1131.721558	6.432574
296.689697	965.285339	3318.444092	1104.716919	5.925294
297.062317	957.827942	3324.093262	1124.828979	7.057579
297.434967	977.375488	3395.843262	1132.738647	6.424033
297.807526	958.279785	3477.196533	1118.275635	6.351772
298.180115	946.189819	3553.014160	1125.620361	6.883109
298.552612	969.805054	3544.087402	1120.987549	5.872802
298.925110	951.952332	3584.990234	1136.693359	7.016269
299.297546	987.205566	3542.393066	1135.450439	5.801722
299.669983	953.421265	3482.281738	1127.654053	6.889775
300.042358	981.217163	3408.949951	1148.331421	6.883552
300.414734	960.991699	3351.211426	1112.739136	6.348681
300.787048	943.139038	3292.794434	1093.530640	6.400581
301.159332	954.776978	3256.863770	1101.440063	6.370875
301.531616	935.455750	3216.525879	1096.355347	7.053689
301.903809	964.268372	3213.474609	1121.665405	6.997892
302.276031	961.556641	3203.757568	1103.812744	6.344485
302.648163	948.675659	3195.961426	1121.439331	7.687660
303.020294	941.218140	3193.475098	1099.067139	7.008482
303.392395	958.618835	3203.418701	1101.213867	6.352238
303.764435	947.658691	3132.233887	1118.501709	7.820423
304.136444	948.336548	3137.092773	1108.671509	7.325391
304.508453	962.121704	3169.859863	1116.806763	7.006495
304.880371	995.228149	3147.035645	1103.699707	5.040950
305.252319	970.257019	3102.856445	1079.180664	5.107553
305.624207	987.431641	3121.161133	1110.931274	5.787971
305.996033	990.595398	3127.488525	1110.366333	5.604910
306.367859	960.878723	3114.494629	1071.497192	5.136406
306.739655	948.901672	3090.539795	1063.474854	5.349792
307.111389	949.240601	3152.572021	1097.372314	6.723079
307.483124	965.172363	3168.504395	1087.090088	5.533334
307.854828	972.177734	3201.271729	1115.563843	6.432484
308.226471	952.291321	3211.327637	1108.445313	6.912416
308.598083	964.833496	3287.145264	1108.219482	6.174278
308.969666	968.788208	3297.766357	1112.400146	6.166307
309.341187	975.115723	3373.583496	1110.705322	5.653176
309.712738	960.426636	3454.485596	1124.490234	6.578176
310.084167	963.364563	3470.869141	1105.959595	5.686730
310.455658	949.692383	3522.393311	1120.648560	6.645008
310.827057	970.257019	3602.842529	1149.800171	6.820031
311.198456	971.951782	3592.673828	1128.557983	5.975689
311.569794	960.991699	3566.233887	1113.982178	5.872409
311.941132	958.166870	3599.566406	1123.247314	6.249734
312.312408	948.336548	3599.792236	1090.479736	5.360950
312.683655	962.234558	3590.865967	1114.885986	5.807259
313.054840	969.805054	3567.250732	1120.535522	5.803027
313.426056	969.127136	3574.595215	1106.411743	5.269096
313.797180	986.075867	3601.374268	1155.449829	6.476277
314.168304	967.206177	3578.210938	1117.258789	5.746930
314.539368	930.709961	3542.618652	1111.044312	6.904313
314.910431	943.477905	3573.126465	1100.084106	5.955404
315.281433	951.274536	3629.283203	1107.428467	5.830972
315.652435	958.392761	3729.732422	1114.998779	5.650914
316.023346	959.748840	3740.805908	1114.208130	5.553977
316.394287	949.805481	3747.132813	1117.484863	5.994271
316.765137	976.019531	3750.071045	1138.275146	5.849049
317.135986	980.539246	3708.489746	1131.947510	5.550257
317.506775	959.522949	3634.593262	1108.106567	5.554382
317.877594	990.821472	3617.871094	1138.840088	5.634405
318.248291	973.759766	3555.499512	1131.608643	6.114051
318.619019	988.900513	3542.166748	1110.253296	4.752845
318.989655	977.488403	3600.244629	1115.563843	5.264516
319.360321	966.302368	3605.441895	1105.959717	5.291776
319.730896	965.172485	3634.367676	1110.027100	5.426902
320.101501	949.127625	3658.209473	1096.129272	5.426254
320.472015	955.455200	3685.213623	1124.942139	6.208862
320.842529	965.963379	3713.349121	1101.891968	4.947561
321.213013	969.917847	3683.744629	1093.078613	4.538270
321.583466	950.031616	3671.089844	1109.349365	5.854992
321.953827	938.393372	3633.915527	1096.129395	5.851780
322.324188	963.590515	3670.412109	1106.976563	5.297211
322.694519	946.302856	3691.428467	1086.299072	5.099811
323.064819	951.274414	3738.094238	1118.953735	6.016870
323.435059	972.855774	3831.312012	1142.003906	5.917464
323.805328	944.382019	3935.151123	1126.863037	6.101475
324.175507	970.369995	4039.780762	1120.422607	4.888646
324.545685	941.557251	4112.772949	1112.965088	5.405114
324.915802	949.466614	4261.356445	1112.626221	4.926480
325.285919	945.963989	4361.241211	1130.930786	5.415864
325.655975	950.822571	4397.624023	1140.534912	5.504011
326.025970	958.844727	4385.082031	1113.417114	4.511433
326.395966	953.082336	4352.993164	1128.671021	5.164508
326.765930	937.376587	4366.212891	1115.676880	5.200023
327.135864	960.087708	4349.942383	1118.388672	4.669845
327.505737	967.206360	4338.304199	1148.783325	5.386286
327.875580	958.279968	4238.758789	1109.914307	4.622324
328.245422	1018.504272	4227.458984	1175.223389	4.883806
328.615204	973.420776	4126.445313	1120.083740	4.651501
328.984955	963.364563	4062.492188	1119.292480	5.031349
329.354675	970.595886	4073.451904	1105.168701	4.337063
329.724365	961.217773	4022.266846	1091.835693	4.267097
330.093994	964.607544	4082.152832	1104.151855	4.476096
330.463623	965.624390	4103.733887	1110.931396	4.630400
330.833191	971.612915	4150.172852	1123.586182	4.781199
331.202759	949.805542	4217.403320	1119.744507	5.200731
331.572266	947.545715	4232.431152	1101.439941	4.684919
331.941711	944.156067	4291.751465	1122.569214	5.329591
332.311188	961.217651	4372.426758	1110.705322	4.382249
332.680573	959.635864	4416.041992	1114.772949	4.488393
333.049988	951.387512	4505.079590	1117.371704	4.670753
333.419312	981.217163	4595.923828	1131.382813	4.154297
333.788635	964.607422	4692.758301	1123.021362	4.249129
334.157867	954.325317	4821.229004	1139.856934	4.797937
334.527130	952.404419	4909.702148	1135.450317	4.625527
334.896332	993.646179	4962.242676	1145.845703	3.835097
335.265503	948.449585	4981.903320	1141.665039	4.790323
335.634613	959.522827	5009.699707	1167.427002	5.133213
336.003723	969.126953	4908.120117	1136.128540	4.239702
336.372772	1011.272827	4890.041504	1178.274170	4.305525
336.741821	957.602173	4831.624023	1150.026245	4.967036
337.110809	965.737183	4764.620605	1124.038330	4.167044
337.479797	981.217102	4736.373047	1141.664795	4.272730
337.848724	985.623840	4787.331543	1164.489136	4.704867
338.217590	975.115845	4819.194824	1136.806396	4.206223
338.586487	952.743347	4796.032227	1125.281250	4.489330
338.955292	974.776550	4859.420898	1130.704834	4.013966
339.324036	949.127563	4876.708008	1116.693970	4.266403
339.692841	958.618958	4912.186523	1152.173096	4.895683
340.061523	945.624878	4874.448242	1119.179688	4.417476
340.430237	965.624390	4906.764160	1124.264160	4.025226
340.798859	977.827454	4947.440430	1145.619751	4.226918
341.167511	960.878723	4947.327637	1130.930908	4.265756
341.536072	964.268433	4905.747070	1127.880005	4.151020
341.904663	951.048462	4958.513672	1132.060669	4.516875
342.273102	970.369934	4981.111816	1123.586182	3.820147
342.641632	993.081360	5023.370605	1176.466187	4.550165
343.010040	940.653198	5082.239258	1135.224487	4.697990
343.378510	965.850403	5152.293945	1145.167480	4.283280
343.746826	939.071411	5208.676758	1140.309204	4.713264
344.115204	967.997253	5281.217773	1156.240601	4.364334
344.483490	942.461060	5373.643555	1132.851685	4.296610
344.851776	964.720398	5493.979980	1152.851074	4.153674
345.220001	972.742798	5643.692871	1184.488770	4.533253
345.588196	961.895630	5663.467285	1151.947021	4.042295
345.956329	959.635925	5800.977051	1166.071045	4.264007
346.324524	954.438171	5824.253418	1147.992432	3.974571
346.692596	957.375977	5827.191895	1152.625000	4.009372
347.060669	1006.301147	5884.026367	1205.844116	4.090902
347.428680	963.251648	5768.774902	1153.867920	3.966608
347.796692	936.020508	5702.222168	1156.918823	4.634683
348.164612	960.652710	5647.421875	1147.314575	3.982741
348.532562	977.827515	5655.218262	1164.715088	3.995552
348.900421	996.810059	5597.141113	1182.567749	4.037920
349.268311	960.652832	5515.673828	1160.534424	4.388160
349.636108	985.397766	5632.506836	1156.466797	3.681193
350.003906	951.161438	5602.676758	1151.721069	4.311706
350.371643	968.787964	5657.591309	1136.128296	3.568935
350.739380	990.030579	5750.131836	1174.319336	3.871530
351.107025	952.630371	5829.451172	1158.500488	4.221400
351.474701	943.139038	5817.248047	1156.466675	4.376751
351.842285	953.534363	5887.641602	1142.455811	3.828888
352.209900	941.105164	5923.347168	1146.071533	4.113938
352.577393	966.076355	5957.244629	1184.714600	4.380502
352.944946	945.624817	5905.381348	1135.789307	3.834150
353.312378	965.511353	6058.258301	1159.404663	3.807244
353.679840	939.862305	6175.657227	1152.850952	4.067934
354.047211	962.686523	6382.317871	1160.195313	3.644321
354.414612	934.664673	6403.786133	1168.104980	4.268333
354.781891	931.613892	6626.493164	1172.398438	4.228088
355.149231	961.217773	6723.439941	1179.291016	3.784534
355.516449	959.183777	6841.627441	1195.222900	4.012603
355.883698	939.975281	6977.670410	1178.726074	3.954337
356.250854	966.641235	7146.140625	1216.917114	4.050099
356.618011	956.811035	7318.338867	1209.911743	3.978615
356.985168	940.540344	7436.980469	1196.013794	3.932515
357.352234	980.200317	7644.092773	1232.283936	3.782828
357.719269	948.788574	7890.301758	1213.753540	3.817107
358.086304	947.997681	8108.713379	1214.318359	3.719191
358.453278	944.946960	8361.701172	1239.628418	3.973186
358.820190	931.500854	8382.942383	1222.453857	3.904654
359.187103	936.585449	8562.373047	1236.803711	3.936882
359.554016	946.980774	8481.698242	1252.057373	4.048945
359.920837	943.478027	8523.730469	1218.160156	3.623654
360.287628	948.901550	8543.503906	1229.798218	3.698636
360.654388	945.963867	8615.706055	1219.064087	3.560748
361.021149	965.511414	8877.167969	1248.554688	3.577548
361.387848	978.279419	9182.920898	1276.802612	3.638467
361.754486	950.144531	9581.216797	1283.695068	3.864532
362.121124	953.421265	9984.595703	1276.350586	3.575718
362.487732	961.217651	10307.750977	1293.751221	3.557828
362.854279	941.105164	10341.196289	1291.152588	3.723873
363.220795	981.104126	10258.260742	1330.360352	3.764691
363.587311	971.499878	10048.662109	1308.553223	3.713202
363.953735	937.263489	9763.359375	1271.265991	3.784261
364.320160	953.873169	9381.334961	1253.752441	3.558358
364.686554	941.783203	8853.779297	1217.595215	3.485998
365.052887	937.715515	8587.910156	1227.199341	3.784006
365.419189	949.466614	8264.529297	1214.205444	3.619092
365.785492	940.427368	8101.255371	1211.154419	3.780667
366.151703	937.941406	8012.443848	1207.990845	3.817222
366.517944	975.454590	7980.920410	1225.730591	3.572582
366.884094	989.917603	7941.711914	1235.673706	3.535146
367.250214	958.618774	7869.059570	1211.267578	3.656045
367.616333	967.206238	7898.889160	1221.888672	3.674179
367.982361	984.832886	7876.177246	1222.340820	3.446467
368.348419	952.291321	7802.732910	1195.900635	3.556111
368.714386	951.952454	7794.484375	1208.216553	3.745165
369.080383	974.437683	7794.032715	1229.572266	3.741198
369.446289	1017.374390	7728.158691	1265.390381	3.695783
369.812195	990.256531	7651.550781	1225.165649	3.526479
370.178009	969.804993	7654.262695	1195.222900	3.372269
370.543854	956.359070	7746.350098	1202.115479	3.619392
370.909607	963.025574	7760.813477	1206.973877	3.588642
371.275360	953.647339	7794.936523	1196.465698	3.549307
371.641052	965.398315	7935.045410	1205.392212	3.443415
372.006744	963.251465	8000.242188	1209.911743	3.505195
372.372375	974.550598	8139.447754	1229.120239	3.553012
372.737976	964.268372	8120.689941	1222.453857	3.607746
373.103546	974.663574	8073.686035	1232.397095	3.630549
373.469055	956.811035	8147.921875	1210.815674	3.532203
373.834595	968.788208	8236.394531	1225.165405	3.527670
374.199982	972.177856	8187.693848	1217.821167	3.404376
374.565460	963.364441	8194.248047	1239.063477	3.812799
374.930817	933.082825	8363.396484	1220.645752	3.870132
375.296204	964.494507	8468.251953	1213.753418	3.321788
375.661499	944.156067	8549.945313	1212.171509	3.523835
376.026825	982.686035	8762.369141	1260.757935	3.574335
376.391998	947.206726	8890.500000	1227.538330	3.529161
376.757263	964.946289	9163.037109	1245.165039	3.418098
377.122406	939.523438	9378.396484	1252.622314	3.710198
377.487549	942.687134	9549.013672	1243.809204	3.498846
377.852631	945.511841	9806.183594	1261.548950	3.566740
378.217743	979.974304	10029.906250	1284.712158	3.367295
378.582764	960.200684	10016.685547	1255.334106	3.258808
378.947754	963.364441	9997.025391	1261.322632	3.298311
379.312714	964.268372	9804.713867	1263.582642	3.385737
379.677673	935.342590	9583.138672	1236.916626	3.487294
380.042542	962.799622	9340.431641	1243.809204	3.354284
380.407379	958.505981	9166.876953	1245.843018	3.500537
380.772186	957.036987	9118.517578	1239.402588	3.459735
381.136993	935.568665	9061.229492	1234.543701	3.679394
381.501740	937.602356	9035.695313	1250.927612	3.869124
381.866486	966.302368	9070.607422	1251.718506	3.521784
382.231110	961.330688	9082.472656	1235.108765	3.371177
382.595764	958.279785	9052.193359	1230.250244	3.360185
382.960327	942.009094	9033.887695	1229.346313	3.550933
383.324951	943.930054	9120.326172	1240.193359	3.623397
383.689453	953.873169	9220.096680	1242.566162	3.492441
384.053986	959.635864	9452.970703	1240.532593	3.307261
384.418396	956.471985	9526.642578	1253.978271	3.471416
384.782867	960.652710	9679.632813	1265.390503	3.495108
385.147217	976.358521	9861.548828	1286.745850	3.493311
385.511597	967.658081	9930.247070	1262.904419	3.294208
385.875885	948.449585	9981.884766	1265.277466	3.507280
386.240204	960.426758	9989.793945	1281.209229	3.552657
386.604401	955.907104	10013.974609	1273.073853	3.501484
386.968628	979.409363	10186.736328	1291.830322	3.393178
387.332764	942.799988	10237.922852	1272.395996	3.545902
387.696930	960.652649	10404.247070	1294.090088	3.530832
388.061005	992.968384	10416.336914	1327.196899	3.546805
388.425140	964.833374	10553.845703	1281.548340	3.302894
388.789124	964.720398	10582.208984	1302.451904	3.511639
389.153168	972.516907	10610.003906	1292.621460	3.321452
389.517090	941.783203	10624.580078	1272.621826	3.416767
389.881042	952.969360	10591.021484	1277.706421	3.369323
390.244873	945.398926	10596.558594	1275.785767	3.423286
390.608734	979.409180	10760.394531	1317.479614	3.456405
390.972534	948.449585	10857.002930	1291.491455	3.462078
391.336304	946.415833	10981.517578	1271.604858	3.240515
391.700043	955.003113	11125.471680	1289.796631	3.291820
392.063751	946.980774	11410.320313	1299.513916	3.369222
392.427399	929.128235	11550.544922	1301.660767	3.507371
392.791077	993.194214	11776.865234	1349.343018	3.302668
393.154663	961.556763	11674.382813	1325.840942	3.400449
393.518219	955.229126	11599.694336	1315.671509	3.386195
393.881744	955.003113	11488.625000	1316.688721	3.433630
394.245209	946.980835	11537.662109	1306.519287	3.394857
394.608704	930.484009	11510.996094	1293.299561	3.429093
394.972107	953.308411	11532.124023	1320.078247	3.467022
395.335480	964.494446	11603.197266	1325.388916	3.392279
395.698792	969.127075	11561.390625	1333.411377	3.439154
396.062103	1015.001587	11420.716797	1349.343018	3.213056
396.425385	960.087891	11170.554688	1314.315674	3.469261
396.788635	965.850403	11051.010742	1294.542236	3.259163
397.151825	957.601929	10920.166016	1274.429810	3.180184
397.514984	959.748840	10688.872070	1281.661377	3.308752
397.878113	977.714355	10623.789063	1287.762939	3.214246
398.241180	954.551147	10523.677734	1268.215088	3.277874
398.604248	965.850403	10495.318359	1266.181519	3.151604
398.967285	981.217163	10598.590820	1279.401611	3.100477
399.330231	984.493835	10529.101563	1289.231689	3.192775
399.693176	961.782593	10407.749023	1278.045410	3.348125
400.056091	961.556641	10480.967773	1278.384399	3.328228
400.418976	956.359070	10405.714844	1264.373535	3.259635
400.781830	970.257019	10403.794922	1276.802490	3.249528
401.144592	960.991821	10359.840820	1260.870850	3.190593
401.507355	992.064453	10444.358398	1300.530640	3.263400
401.870087	974.324585	10379.049805	1268.667236	3.129731
402.232758	968.788269	10570.908203	1277.141602	3.211305
402.595428	986.753723	10649.211914	1286.293701	3.100039
402.958038	964.946411	10855.194336	1294.316162	3.330248
403.320618	950.709595	10962.990234	1267.424438	3.163264
403.683167	953.760254	11101.291016	1283.695068	3.251380
404.045654	975.115601	11264.787109	1297.480103	3.132894
404.408142	951.048462	11323.205078	1274.768799	3.121052
404.770569	945.624878	11425.688477	1291.717285	3.302388
405.132996	977.036438	11731.103516	1334.880127	3.327519
405.495331	951.274414	11877.879883	1295.559082	3.150884
405.857666	977.601379	12057.874023	1331.151489	3.190807
406.219940	955.003113	12105.444336	1332.959351	3.389608
406.582214	955.907104	12017.423828	1309.005127	3.192130
406.944427	941.783081	11941.720703	1312.620972	3.371273
407.306549	935.455566	11833.587891	1299.965698	3.344703
407.668732	951.274414	11750.200195	1313.411743	3.353457
408.030792	944.833801	11653.705078	1299.514038	3.312023
408.392914	964.946411	11741.160156	1286.858887	2.987250
408.754883	964.381531	11624.439453	1318.383545	3.320827
409.116943	957.602051	11926.805664	1304.598633	3.163371
409.478882	954.099243	11861.720703	1310.248047	3.265137
409.840820	996.583984	12025.108398	1354.879639	3.248809
410.202667	952.517273	12220.922852	1311.038940	3.181654
410.564575	978.957397	12296.400391	1311.378174	2.937243
410.926331	960.652710	12295.721680	1298.836060	2.983514
411.288147	967.884155	12144.766602	1306.293335	3.027760
411.649872	944.494995	12276.626953	1319.739502	3.311332
412.011566	958.957886	12157.308594	1295.107056	3.001774
412.373199	967.206360	12063.185547	1313.411865	3.120099
412.734894	974.437622	11890.083984	1289.457764	2.885950
413.096436	955.003113	11871.327148	1285.615967	3.028610
413.458008	949.579590	11878.331055	1289.457642	3.109944
413.819519	955.568054	11970.533203	1299.965942	3.126636
414.181030	938.732422	11968.159180	1287.988647	3.166585
414.542450	949.805664	12072.114258	1303.016602	3.175698
414.903870	962.121460	12152.221680	1298.835938	3.009039
415.265198	954.438171	12322.953125	1303.016724	3.066175
415.626587	955.907227	12295.269531	1286.859009	2.918610
415.987854	955.906921	12499.898438	1301.095825	2.990204
416.349152	961.330688	12650.288086	1308.101196	2.966650
416.710327	946.076843	12802.714844	1308.214233	3.054301
417.071533	953.308289	12778.421875	1319.965454	3.100665
417.432678	952.856323	13206.206055	1315.106689	2.956337
417.793823	936.585449	13381.455078	1336.688232	3.215002
418.154877	928.224243	13612.974609	1332.055420	3.183596
418.515930	936.359558	14085.393555	1336.123291	3.040252
418.876923	958.392944	14456.908203	1365.274780	3.014271
419.237915	973.307739	14723.793945	1374.201172	2.915485
419.598816	962.799500	15106.947266	1376.121948	2.922215
419.959717	952.291504	15605.916992	1373.975342	2.877676
420.320526	943.365051	16305.673828	1395.443604	2.942777
420.681396	976.132690	16572.109375	1422.109619	2.859564
421.042145	959.635742	17083.390625	1429.228271	2.912427
421.402924	958.166870	17529.595703	1426.742065	2.827609
421.763580	956.698120	17836.820313	1452.616943	2.937886
422.124298	951.839478	18280.082031	1451.148315	2.881474
422.484894	971.273926	18452.962891	1481.881958	2.920816
422.845520	954.890259	18369.009766	1475.780518	2.991195
423.206055	951.952332	18285.169922	1447.758667	2.860440
423.566589	942.122070	18073.083984	1447.419678	2.949616
423.927063	964.720398	18161.216797	1468.549072	2.929833
424.287506	943.365051	17968.230469	1445.159912	2.947423
424.647949	960.878723	18085.287109	1451.939209	2.867606
425.008301	933.195923	18325.394531	1452.052002	2.983269
425.368652	949.579468	18440.984375	1468.435913	2.966351
425.728943	953.534302	18157.261719	1456.910889	2.925974
426.089203	945.398926	18535.222656	1457.588867	2.911854
426.449432	953.195313	18349.347656	1437.589478	2.784490
426.809601	964.720520	18347.652344	1440.979248	2.739807
427.169739	927.094360	18342.566406	1450.583374	3.005885
427.529846	985.849792	18193.646484	1461.656616	2.765065
427.889954	999.408875	18090.144531	1491.260376	2.877884
428.250000	944.156067	17697.730469	1437.702393	2.945917
428.609985	953.195313	17561.121094	1419.623657	2.808468
428.969940	965.850281	17316.154297	1426.177246	2.815403
429.329865	979.635254	17305.871094	1417.476807	2.681828
429.689789	983.477173	17040.570313	1419.171875	2.713410
430.049622	958.957886	17026.332031	1416.911865	2.850210
430.409454	958.618835	16694.025391	1408.663452	2.860076
430.769226	975.228516	16508.605469	1406.064575	2.773615
431.128937	976.471375	16303.865234	1405.612915	2.799834
431.488678	943.703979	16510.638672	1389.002930	2.860543
431.848328	964.607422	16680.691406	1387.082275	2.688169
432.207947	963.251465	16489.169922	1397.364502	2.796054
432.567566	960.765747	16729.730469	1392.505737	2.737910
432.927124	951.161316	16793.230469	1411.262451	2.904299
433.286621	965.059387	17091.980469	1402.448975	2.712170
433.646118	949.692505	17415.019531	1426.177124	2.893867
434.005554	962.912476	17328.810547	1423.352417	2.813411
434.364960	996.132019	17288.810547	1459.735474	2.845471
434.724335	951.613464	17327.566406	1415.104004	2.830312
435.083649	966.302246	17008.140625	1437.589355	2.937862
435.442932	954.099243	16959.667969	1400.867065	2.791327
435.802216	970.596008	17085.089844	1437.476318	2.897269
436.161407	982.686035	16842.044922	1412.731445	2.711619
436.520630	960.313660	16916.730469	1411.375488	2.826837
436.879761	945.059937	17163.617188	1404.369873	2.832002
437.238831	958.731812	17376.492188	1435.555420	2.904316
437.597931	952.743347	17475.363281	1403.126953	2.725861
437.956940	962.573608	17320.449219	1407.081787	2.717396
438.315948	942.461121	17463.158203	1417.589966	2.875961
438.674896	970.483032	17410.839844	1419.058838	2.728504
439.033844	961.104797	17149.492188	1412.279175	2.787025
439.392700	948.449707	17362.257813	1421.770630	2.883675
439.751556	956.020142	17331.408203	1413.409302	2.793150
440.110352	954.664185	18045.513672	1422.900391	2.739689
440.469116	956.020020	18088.113281	1448.323486	2.873574
440.827850	945.624878	18286.751953	1432.956787	2.810267
441.186554	971.951965	18903.683594	1475.893311	2.810333
441.545197	940.201355	19043.566406	1455.554932	2.846728
441.903809	979.409363	19249.662109	1471.034912	2.690853
442.262390	951.613281	19076.675781	1454.086060	2.772254
442.620941	962.347656	18770.128906	1489.339355	2.959334
442.979462	952.517395	18842.105469	1457.588745	2.823270
443.337921	975.906616	18720.070313	1457.362915	2.713322
443.696350	953.760254	18374.771484	1454.876953	2.876508
444.054718	958.279968	18395.337891	1435.216553	2.735189
444.413086	995.906067	18786.851563	1489.452393	2.774143
444.771423	993.194214	19161.531250	1491.034180	2.740151
445.129669	969.466003	18577.251953	1438.493286	2.663749
445.487915	933.534851	17412.423828	1391.827881	2.781092
445.846130	958.844849	17941.449219	1423.126465	2.733866
446.204285	940.314331	17986.761719	1427.646118	2.858847
446.562408	967.884094	18561.431641	1472.842529	2.870134
446.920532	939.862305	19400.283203	1443.464966	2.728013
447.278595	962.008667	19765.355469	1493.859009	2.828488
447.636566	941.896179	20449.181641	1496.344727	2.842264
447.994568	969.353149	20976.623047	1526.965332	2.787048
448.352509	960.087708	21073.230469	1523.801758	2.802715
448.710419	934.099731	20955.609375	1495.440918	2.803691
449.068237	933.986816	20834.027344	1496.909912	2.828753
449.426056	959.409851	20978.771484	1522.897705	2.814714
449.783844	970.482788	20521.609375	1523.010986	2.826068
450.141602	957.263000	20481.382813	1528.095459	2.923730
450.499329	942.912964	20260.597656	1504.706299	2.908181
450.856964	973.759766	19858.574219	1494.084839	2.755256
451.214630	964.946472	19957.779297	1503.576294	2.835964
451.572235	952.856445	19614.289063	1469.678833	2.769468
451.929779	950.483521	19697.449219	1469.791748	2.770092
452.287323	969.240051	19792.812500	1499.847656	2.818846
452.644806	972.629883	19706.035156	1480.187012	2.709369
453.002258	980.652039	19646.376953	1481.317139	2.682270
453.359650	967.545227	19305.480469	1480.978027	2.799840
453.717010	973.985718	19371.472656	1493.859131	2.825785
454.074341	969.014038	18963.003906	1464.933228	2.756027
454.431641	973.533813	18853.628906	1476.571411	2.813394
454.788910	966.980286	18625.160156	1448.210449	2.725254
455.146118	951.839355	18622.673828	1456.684814	2.856942
455.503296	945.624878	18337.933594	1453.634033	2.920884
455.860443	946.302856	18698.041016	1432.843628	2.740806
456.217560	954.212097	18335.113281	1455.329102	2.883147
456.574615	986.866821	18111.160156	1456.911011	2.744897
456.931641	977.375488	18296.693359	1494.424072	2.985386
457.288635	964.381348	18386.521484	1469.678955	2.900319
457.645599	952.517395	18176.583984	1424.708252	2.741460
458.002502	970.596008	18495.105469	1481.091064	2.913035
458.359375	959.522766	18518.269531	1444.820557	2.763852
458.716217	967.771179	19216.894531	1490.695435	2.865476
459.073029	964.042480	19969.304688	1471.938721	2.672398
459.429779	995.002136	20826.796875	1521.881104	2.656739
459.786499	980.652161	21740.218750	1514.536377	2.571750
460.143219	962.573547	22565.283203	1554.083618	2.738129
460.499847	948.336731	22632.738281	1559.168091	2.816916
460.856476	962.912598	23432.492188	1574.082886	2.719990
461.213043	970.256958	23473.736328	1604.364502	2.817820
461.569550	983.138000	23422.324219	1583.348267	2.674831
461.926056	989.691406	23137.472656	1580.071411	2.665639
462.282501	983.589966	22484.945313	1574.987061	2.750511
462.638916	960.652710	21859.197266	1515.440430	2.654671
462.995331	949.127625	21229.044922	1520.524902	2.817552
463.351654	963.816406	21093.570313	1512.163696	2.724064
463.707947	954.664246	20570.988281	1515.892456	2.861026
464.064209	980.991089	20398.220703	1508.774048	2.718117
464.420441	949.579590	20180.488281	1481.994995	2.768540
464.776642	945.285950	19897.554688	1470.469971	2.771088
465.132782	963.929504	19953.826172	1495.215088	2.797728
465.488892	953.534302	19688.410156	1476.797119	2.792988
465.844971	961.104675	19968.060547	1466.967163	2.661460
466.201019	941.896118	20165.908203	1474.650513	2.771297
466.557007	946.076965	20183.083984	1496.796997	2.862815
466.912964	956.698059	20509.517578	1511.372681	2.836801
467.268890	947.319702	20767.251953	1499.395630	2.785458
467.624756	943.816895	20936.853516	1515.214355	2.857982
467.980591	959.974792	21240.574219	1524.705811	2.784587
468.336426	963.138672	21178.654297	1523.462891	2.771753
468.692169	958.957825	21075.716797	1532.050049	2.848830
469.047913	962.347534	20725.105469	1520.524780	2.824389
469.403625	940.879272	20624.089844	1490.921143	2.794472
469.759247	961.104675	20157.777344	1489.791382	2.754054
470.114838	938.280457	20184.777344	1496.457886	2.900151
470.470459	946.980835	20097.775391	1474.198608	2.752981
470.825958	945.737915	19836.880859	1481.768921	2.837473
471.181488	975.567566	19867.048828	1487.079712	2.707634
471.536926	978.053406	19877.781250	1466.402344	2.583894
471.892365	948.110718	20095.066406	1477.588257	2.765336
472.247742	961.443665	20069.189453	1505.723022	2.848475
472.603058	970.821960	20208.171875	1499.169678	2.746468
472.958374	977.714539	20499.800781	1515.101440	2.752712
473.313629	956.697876	20785.781250	1521.994019	2.850843
473.668884	970.935059	20968.714844	1549.450806	2.892900
474.024048	940.088257	21425.988281	1523.688721	2.848791
474.379211	951.161316	21498.527344	1515.440430	2.746236
474.734314	942.461121	21362.714844	1508.660889	2.772736
475.089417	939.184387	21377.628906	1522.219971	2.852642
475.444458	954.777222	21467.230469	1524.592529	2.777899
475.799438	937.715515	21440.117188	1498.265747	2.734071
476.154388	934.212708	21681.802734	1516.231201	2.805234
476.509308	955.229004	22090.607422	1525.609741	2.698701
476.864197	966.641235	22209.359375	1568.207397	2.831870
477.219025	956.697937	22574.662109	1561.992798	2.799962
477.573822	945.398804	23162.781250	1554.422485	2.741204
477.928619	936.133606	23544.125000	1557.247437	2.747320
478.283325	958.392883	23762.199219	1581.427124	2.732150
478.638000	946.528809	24242.751953	1585.833862	2.744243
478.992676	952.291321	24497.097656	1596.568115	2.736386
479.347260	1007.205078	25049.962891	1668.882813	2.752088
479.701843	964.946411	25196.849609	1627.979736	2.736200
480.056366	949.918457	25629.949219	1629.109619	2.751987
480.410858	981.443237	26296.031250	1661.538330	2.686574
480.765320	979.296387	26897.712891	1667.526733	2.655372
481.119751	943.591003	27471.822266	1670.577759	2.740427
481.474091	966.076294	28542.636719	1708.655640	2.692792
481.828430	956.359070	29719.675781	1745.716797	2.744321
482.182709	969.240112	31304.371094	1795.320313	2.723180
482.536987	947.545776	33105.347656	1817.466064	2.705161
482.891174	959.183777	35584.832031	1907.859375	2.739806
483.245361	958.392944	38864.289063	1967.744751	2.662783
483.599518	962.347534	43165.417969	2148.531006	2.810657
483.953644	961.895691	47441.132813	2242.427246	2.755061
484.307678	955.568176	50840.925781	2351.011963	2.797301
484.661713	956.811035	52736.468750	2440.952637	2.866264
485.015686	956.698059	53778.917969	2466.149902	2.857608
485.369659	963.477539	53526.730469	2469.991699	2.866098
485.723572	947.997681	52204.847656	2390.558594	2.814377
486.077423	946.754761	49882.085938	2320.052246	2.806352
486.431274	952.630371	47426.324219	2244.686768	2.780189
486.785034	954.099243	45941.390625	2196.439453	2.761536
487.138794	947.884644	45286.042969	2168.530518	2.753037
487.492523	978.166382	45642.988281	2193.049561	2.720000
487.846191	947.432800	46403.636719	2222.653320	2.805383
488.199829	958.731812	47120.343750	2244.347900	2.785033
488.553436	962.686646	47514.230469	2246.381592	2.757578
488.906982	959.409790	47365.195313	2229.433105	2.736778
489.260529	961.217773	46385.335938	2218.585693	2.768062
489.613983	959.522827	45168.871094	2180.507813	2.761825
489.967438	973.307800	43374.000000	2176.552979	2.837796
490.320831	960.313782	42093.699219	2118.362793	2.815351
490.674194	986.866821	41002.195313	2073.504395	2.715553
491.027527	956.698059	40920.054688	2049.098633	2.733506
491.380798	942.009155	41422.757813	2060.623779	2.763325
491.734070	967.545105	42819.664063	2101.413574	2.709226
492.087250	953.421265	43607.894531	2123.898926	2.744091
492.440430	957.263000	44059.632813	2143.446533	2.752015
492.793549	937.941589	43800.429688	2151.582031	2.831474
493.146637	963.251465	43270.843750	2154.858398	2.816532
493.499695	952.404419	41524.105469	2098.023926	2.823691
493.852692	968.562195	39076.039063	2035.200928	2.799027
494.205658	952.630493	36799.265625	1958.253540	2.805348
494.558594	978.166382	35063.257813	1921.418579	2.767345
494.911499	957.036926	33383.304688	1871.137451	2.819012
495.264374	942.574219	32157.572266	1825.827881	2.829581
495.617188	975.002808	31383.019531	1827.183838	2.802488
495.969940	955.003235	30913.197266	1807.862061	2.846830
496.322693	943.703918	30728.119141	1771.592041	2.779602
496.675385	958.844727	30821.900391	1806.054321	2.836982
497.028015	968.901001	30929.808594	1813.963623	2.820551
497.380676	954.212219	31045.062500	1785.038086	2.761058
497.733246	953.873230	30997.156250	1794.642212	2.798526
498.085785	1146.184570	31224.718750	2011.924438	2.878265
498.438263	959.409851	30905.628906	1774.868530	2.723077
498.790710	961.443665	30637.837891	1780.179077	2.758878
499.143158	972.742798	30333.890625	1778.032471	2.742705
499.495544	937.376343	29967.009766	1763.117432	2.844476
499.847870	950.709473	29433.578125	1731.593140	2.741590
500.200165	957.714966	29048.162109	1720.406860	2.715129
500.552429	957.488953	28556.537109	1731.140869	2.803183
500.904663	953.421204	28137.000000	1713.966187	2.797810
501.256866	972.742676	27986.269531	1713.740234	2.743061
501.609009	964.494507	27521.425781	1680.746704	2.697044
501.961090	951.161499	27261.542969	1668.430664	2.726183
502.313171	960.539734	27276.228516	1674.645264	2.713611
502.665253	950.709595	27067.650391	1643.007813	2.650763
503.017181	951.274414	26887.541016	1652.724854	2.704516
503.369110	928.563171	26865.621094	1631.030518	2.708354
503.721069	979.183289	26939.177734	1647.866211	2.575821
504.072937	963.025574	26989.912109	1662.216431	2.686418
504.424774	955.342102	26970.253906	1677.357178	2.775389
504.776520	945.737915	26978.390625	1644.476563	2.684086
505.128265	947.997742	26960.646484	1645.493408	2.681371
505.480042	947.997742	27122.902344	1653.289795	2.694535
505.831665	960.652710	26920.988281	1649.561279	2.653697
506.183289	950.935425	26781.667969	1644.702759	2.685821
506.534882	969.466003	26862.458984	1665.153931	2.686781
506.886505	945.511841	26631.619141	1658.035522	2.773965
507.237946	947.545715	26610.828125	1644.589478	2.716113
507.589417	943.139160	26637.494141	1629.109619	2.669732
507.940857	958.844849	26563.593750	1678.373779	2.810139
508.292297	957.488892	26682.916016	1640.973633	2.656845
508.643616	952.969360	26924.828125	1663.007202	2.733874
508.994904	949.918579	27103.244141	1650.351929	2.678181
509.346191	972.629761	27334.759766	1681.763672	2.689972
509.697479	962.460571	27390.015625	1675.436157	2.697849
510.048645	997.148804	27644.808594	1723.118408	2.724328
510.399780	970.596069	27683.453125	1681.989624	2.663113
510.750916	963.025513	27990.671875	1718.598877	2.795557
511.102051	960.313843	27982.878906	1693.853882	2.714546
511.453033	1008.335083	28217.113281	1741.762329	2.695554
511.804016	966.528198	28287.394531	1706.508545	2.708480
512.154968	940.314331	28474.166016	1687.865234	2.715025
512.505920	959.635742	28749.527344	1687.187256	2.618044
512.856750	963.138489	28683.765625	1719.502930	2.728526
513.207581	963.251648	28887.146484	1734.530640	2.762075
513.558411	962.121582	28898.562500	1717.921143	2.705425
513.909180	973.307922	28771.447266	1724.700439	2.703032
514.259888	963.816406	28819.240234	1739.389038	2.784279
514.610535	956.697937	28638.339844	1729.784912	2.792778
514.961182	943.365051	28481.621094	1726.282471	2.843017
515.311829	954.212097	28410.437500	1723.683350	2.802538
515.662354	955.567993	28513.037109	1719.276733	2.771331
516.012878	954.325195	28596.990234	1721.762939	2.776280
516.363281	933.421875	28715.855469	1727.525146	2.858293
516.713745	951.500366	28903.988281	1745.151733	2.839287
517.064209	950.144653	29331.208984	1746.846680	2.807160
517.414490	945.850952	29764.527344	1767.072266	2.849615
517.764832	948.336548	30423.042969	1791.930420	2.862094
518.115173	950.370483	31122.574219	1814.189819	2.862964
518.465393	955.003113	31990.458984	1847.295898	2.875076
518.815552	945.059937	32790.777344	1866.843750	2.894530
519.165710	975.454468	33280.929688	1915.090820	2.908598
519.515869	955.003296	33210.761719	1897.916016	2.923239
519.865967	956.245972	33593.921875	1922.548218	2.960696
520.216003	956.811035	33139.472656	1920.627319	2.994831
520.565918	968.223022	32688.177734	1922.209351	3.007527
520.915955	953.534302	32274.972656	1893.961304	3.002503
521.265869	960.087769	31683.796875	1903.678711	3.071214
521.615723	963.251465	31382.902344	1881.984619	3.020196
521.965576	1008.109070	31162.683594	1937.689453	3.082718
522.315369	952.517395	30819.074219	1885.148193	3.122659
522.665161	942.461121	30847.324219	1888.085693	3.162110
523.014832	940.653198	30950.488281	1895.882202	3.183053
523.364502	950.144531	31150.593750	1913.622070	3.190275
523.714172	961.895630	31240.083984	1934.186279	3.211192
524.063782	970.144043	31670.468750	1995.201904	3.338915
524.413330	946.076782	32247.972656	1958.592407	3.234678
524.762817	954.777222	32970.429688	2016.105225	3.315028
525.112366	950.822571	33842.054688	2067.177246	3.394080
525.461792	955.568054	35034.890625	2101.865723	3.363616
525.811157	966.641235	36072.042969	2164.575928	3.412394
526.160522	957.149902	37282.070313	2157.344482	3.304053
526.509827	963.477539	38267.921875	2274.629639	3.514734
526.859131	938.619446	39457.382813	2281.860840	3.487239
527.208313	953.082336	40903.222656	2359.260254	3.519832
527.557495	959.409790	42155.390625	2434.625488	3.580970
527.906738	947.658691	44086.867188	2498.352539	3.594628
528.255859	947.771790	46767.695313	2593.717285	3.592205
528.604919	959.635925	49593.156250	2740.267090	3.661325
528.953918	945.511841	51799.761719	2868.625488	3.781618
529.302917	956.811157	53005.394531	2965.006836	3.858310
529.651917	991.725403	53731.925781	3035.174316	3.874557
530.000793	956.133118	53393.511719	2996.756836	3.891544
530.349609	969.692017	52210.039063	2987.944092	3.938795
530.698547	975.115723	50100.375000	2882.749268	3.883203
531.047302	983.138000	47163.957031	2786.028320	3.903981
531.396057	954.099243	44752.273438	2700.833008	3.988143
531.744751	951.274414	42749.726563	2626.258545	4.007288
532.093445	949.240601	41547.722656	2583.886475	4.026372
532.442139	972.516785	40877.125000	2598.123535	4.073731
532.790710	964.494324	40832.937500	2607.162842	4.120223
533.139160	937.602417	41959.808594	2655.861816	4.188608
533.487732	952.856262	42707.234375	2741.058105	4.282669
533.836243	951.161438	43355.585938	2781.848145	4.317207
534.184631	946.415710	43596.480469	2773.260498	4.283334
534.533020	953.308289	43568.570313	2801.395020	4.336678
534.881348	946.302856	42593.117188	2766.707031	4.371053
535.229736	964.494446	41422.976563	2757.215332	4.431014
535.577942	969.353027	39897.480469	2695.635254	4.434537
535.926086	982.686035	38711.867188	2675.636230	4.487111
536.274353	952.856323	38155.039063	2644.337402	4.546725
536.622498	974.776672	37817.308594	2679.590332	4.627298
536.970642	957.488953	37766.238281	2678.234863	4.674828
537.318665	935.681519	37596.976563	2664.901855	4.716746
537.666687	944.946960	37306.820313	2672.924316	4.752168
538.014709	953.647156	36949.648438	2660.607910	4.742085
538.362610	943.591125	36242.441406	2645.354004	4.821015
538.710510	956.810913	35548.445313	2639.478516	4.864377
539.058411	961.330688	34723.265625	2608.971191	4.880172
539.406250	956.472046	34345.988281	2631.456543	5.016499
539.753967	960.313782	34301.476563	2654.280762	5.080708
540.101746	968.336121	34497.398438	2673.489014	5.085597
540.449463	951.387512	35578.503906	2730.323975	5.137409
540.797119	998.165894	36877.671875	2879.020752	5.242142
541.144714	949.353699	38928.132813	2959.696289	5.293331
541.492249	962.234558	40738.929688	3089.297363	5.347510
541.839844	961.104675	42496.281250	3205.565186	5.403758
542.187378	958.957886	43361.234375	3272.117432	5.455272
542.534790	942.574097	43591.398438	3309.065186	5.548784
542.882202	951.387512	43519.300781	3327.935059	5.582955
543.229553	948.336731	42402.046875	3292.907715	5.655877
543.576965	949.579590	40825.367188	3203.079590	5.651299
543.924194	950.257507	39347.777344	3149.183105	5.726738
544.271423	946.754761	37670.871094	3060.710449	5.756314
544.618652	948.562683	36318.820313	3036.643066	5.903492
544.965881	978.392395	34997.500000	2973.142090	5.863616
545.312988	945.285828	33940.687500	2893.821777	5.905477
545.660034	992.855286	32979.136719	2919.697266	6.023964
546.007141	974.889648	32279.605469	2873.031738	6.063438
546.354126	944.042969	31827.521484	2833.259277	6.117239
546.701111	958.732056	31658.712891	2858.455811	6.188029
547.048035	940.427246	31600.527344	2854.500977	6.242882
547.394836	942.913086	31362.453125	2877.890381	6.360969
547.741699	954.777161	31027.542969	2860.942139	6.338509
548.088562	960.426758	30631.285156	2871.563232	6.441123
548.435303	954.551270	30109.150391	2847.947754	6.494332
548.781921	960.539856	29157.083984	2838.004395	6.658492
549.128662	961.443665	28389.425781	2794.163574	6.681935
549.475342	955.003113	27574.302734	2758.910400	6.776690
549.821899	957.036987	26781.781250	2729.871582	6.864868
550.168457	996.018921	26222.136719	2715.973633	6.818151
550.515015	986.075684	25530.740234	2700.155273	6.983512
550.861511	974.776733	25116.519531	2679.251465	7.060281
551.207886	955.342285	24858.894531	2659.364990	7.128742
551.554260	988.109680	24549.978516	2698.347168	7.258497
551.900635	965.511353	24573.136719	2668.517334	7.213796
552.247009	953.421204	24501.617188	2668.517334	7.283345
552.593262	952.856262	24418.226563	2709.646240	7.486734
552.939392	950.709473	24743.980469	2739.927979	7.519851
553.285645	956.246094	24691.894531	2761.509277	7.605704
553.631775	963.477661	24608.394531	2746.707520	7.541705
553.977905	961.782593	24557.660156	2775.294189	7.685714
554.323975	948.788574	24398.796875	2800.265625	7.895422
554.669983	959.635864	24331.226563	2805.462891	7.897738
555.015991	933.195801	23925.248047	2783.090576	8.045801
555.361877	941.783081	23588.644531	2780.378906	8.118546
555.707825	955.229126	23158.375000	2779.249023	8.215141
556.053711	949.127747	23000.638672	2788.401611	8.340807
556.399536	953.308289	22729.121094	2783.203857	8.403339
556.745239	944.833984	22627.427734	2796.423584	8.539521
557.091003	941.670227	22393.646484	2796.649902	8.647127
557.436707	949.353516	22292.181641	2807.044678	8.704054
557.782410	945.511841	22239.980469	2827.496582	8.837904
558.127991	954.099304	21982.357422	2835.292725	8.946026
558.473511	978.618347	21932.191406	2874.952637	9.050172
558.819092	953.873230	21850.839844	2862.410645	9.133083
559.164612	956.923950	21730.277344	2846.930664	9.098227
559.510010	963.251587	21646.324219	2908.398193	9.404534
559.855408	946.302734	21609.939453	2914.951172	9.527115
560.200806	961.217590	21506.105469	2936.532959	9.614632
560.546143	941.331238	21429.716797	2922.974121	9.672030
560.891357	952.065430	21650.166016	2991.785645	9.854625
561.236633	973.194824	21619.433594	3019.694824	9.912217
561.581848	950.483398	21659.771484	3018.790771	9.987341
561.927002	944.268921	21640.673828	3028.733887	10.071628
562.272095	942.235046	21752.199219	3082.517822	10.284893
562.617126	960.765808	21682.595703	3105.794189	10.351539
562.962219	975.228638	21612.087891	3141.499268	10.497094
563.307251	961.443726	21581.917969	3133.251221	10.532288
563.652161	950.596497	21542.259766	3167.035645	10.763769
563.997009	947.319702	21514.689453	3160.142822	10.758903
564.341919	947.206726	21496.609375	3207.147217	10.997597
564.686768	953.534302	21454.919922	3248.502441	11.194211
565.031555	947.432739	21594.916016	3281.834717	11.305988
565.376282	977.375366	21793.550781	3355.165527	11.422799
565.721008	974.550659	21973.998047	3407.367920	11.585150
566.065674	959.635742	22286.082031	3423.299561	11.552154
566.410278	950.370483	22573.984375	3507.139404	11.823968
566.754822	954.777222	22938.494141	3572.900879	11.909376
567.099365	942.009155	23025.498047	3594.707520	12.012135
567.443909	936.811523	23154.417969	3640.017090	12.166953
567.788330	957.150024	22964.255859	3666.117920	12.309514
568.132751	957.940918	22907.984375	3689.621094	12.444988
568.477112	947.206665	22553.082031	3663.180176	12.570533
568.821533	946.641785	22335.347656	3690.524902	12.828654
569.165771	969.127075	22193.878906	3722.501221	12.972467
569.510010	960.878601	22127.892578	3716.060547	13.016394
569.854248	977.262390	22036.033203	3751.766113	13.175050
570.198364	955.455078	21883.042969	3746.455078	13.336463
570.542542	960.087769	22081.679688	3826.000732	13.568642
570.886536	961.330688	22087.894531	3839.560547	13.623749
571.230591	948.562683	22226.306641	3878.655029	13.770691
571.574646	957.375977	22419.410156	3965.206299	14.014656
571.918518	950.370422	22539.861328	4024.640137	14.239659
572.262451	935.229675	22790.021484	4096.050781	14.462829
572.606323	960.991699	22996.910156	4138.083496	14.417788
572.950195	950.596497	23073.740234	4208.702637	14.727139
573.293945	942.800171	23172.160156	4239.209961	14.829081
573.637695	956.472046	22822.560547	4252.882813	15.075448
573.981384	962.008606	22728.441406	4298.870117	15.330309
574.325134	966.641235	22605.505859	4288.474609	15.351237
574.668701	944.042969	22414.890625	4303.841309	15.648187
575.012268	944.269043	22252.070313	4285.537109	15.680962
575.355774	949.353516	22132.410156	4338.643066	16.000002
575.699341	955.342102	22115.687500	4363.387695	16.105812
576.042725	964.042603	21951.062500	4433.104492	16.529560
576.386169	961.782715	21821.685547	4365.422852	16.316664
576.729553	965.285461	21577.849609	4382.822266	16.579872
577.072876	987.770630	21347.458984	4435.024414	16.931763
577.416138	991.499329	20946.566406	4385.647461	17.008955
577.759399	963.816406	20571.775391	4332.541504	17.180397
578.102600	957.036987	20300.484375	4321.242188	17.391962
578.445801	961.669617	19976.875000	4275.593262	17.427755
578.788940	966.867371	19647.052734	4258.871094	17.622971
579.131897	954.325317	19392.597656	4245.199707	17.848064
579.474976	963.816406	19120.964844	4255.142090	18.126886
579.817993	959.409973	18863.005859	4252.430664	18.393068
580.160950	957.375977	18668.210938	4203.957031	18.331043
580.503845	974.098633	18403.923828	4238.193848	18.727070
580.846680	950.257507	18292.966797	4210.397949	18.798334
581.189514	949.127625	18092.406250	4218.645996	19.071720
581.532349	941.896179	17947.437500	4209.380371	19.214231
581.875061	959.183777	17848.230469	4239.775879	19.424376
582.217773	955.567993	17766.988281	4265.199219	19.686804
582.560425	994.889038	17781.570313	4352.993164	20.004574
582.903076	975.228638	17594.791016	4300.226074	20.006529
583.245667	947.432617	17492.875000	4298.417969	20.253223
583.588135	948.110718	17565.187500	4338.643066	20.403904
583.930664	953.421265	17374.230469	4368.698242	20.798470
584.273071	945.398804	17288.808594	4373.783691	20.977169
584.615479	967.884155	17216.609375	4357.852051	20.862976
584.957825	951.274536	17185.650391	4394.234863	21.207840
585.300232	951.048462	17100.792969	4433.781738	21.565254
585.642517	957.715027	16913.453125	4398.189941	21.562618
585.984680	965.285339	17025.203125	4442.369141	21.650694
586.326843	970.708984	16930.177734	4462.708008	21.880421
586.669067	988.787720	16885.769531	4515.249023	22.183214
587.011230	979.861328	16864.189453	4537.620605	22.397921
587.353271	954.890137	16833.908203	4553.439941	22.662294
587.695251	950.822388	16822.042969	4559.993164	22.740349
588.037231	968.336121	16878.539063	4618.974609	22.945267
588.379211	954.212219	16808.482422	4653.097656	23.330530
588.721069	966.641113	16888.144531	4672.080566	23.273174
589.062927	948.788696	16998.308594	4763.604004	23.769032
589.404785	995.341125	17082.828125	4804.054199	23.675003
589.746582	943.139282	17053.789063	4821.003418	24.070192
590.088257	956.246094	17174.011719	4869.589355	24.129978
590.429932	972.290710	17195.255859	4870.945801	24.031704
590.771606	949.014465	17184.068359	4909.023438	24.391722
591.113220	952.065308	17181.128906	4954.446289	24.661810
591.454773	1007.431152	17166.214844	5033.540039	24.915916
591.796265	954.777222	17047.460938	4975.461914	24.984550
592.137817	960.652832	16909.613281	5000.208008	25.328014
592.479248	958.505859	16799.447266	4982.581055	25.403006
592.820618	952.178345	16793.117188	5035.913086	25.779627
593.161926	967.997253	16651.765625	5030.488770	25.902521
593.503296	961.104797	16738.769531	5062.352539	25.994009
593.844604	953.082336	16767.359375	5081.448242	26.105307
594.185791	952.291321	16796.619141	5122.012695	26.316807
594.526917	952.856262	16906.675781	5176.699707	26.475437
594.868103	955.794067	16959.781250	5230.935547	26.712978
595.209229	955.003235	17011.642578	5299.521973	27.057459
595.550232	961.443665	17248.134766	5382.683594	27.146334
595.891235	951.387390	17383.271484	5462.116699	27.451078
596.232178	963.477539	17583.716797	5518.837891	27.408514
596.573181	971.951965	17766.990234	5619.513672	27.672228
596.914063	946.754761	18091.048828	5730.810059	27.904648
597.254883	958.279968	18262.910156	5804.028320	28.002611
597.595703	962.008606	18366.070313	5911.369629	28.437963
597.936462	958.844849	18404.828125	5917.019043	28.420149
598.277161	947.545715	18252.628906	5930.239258	28.793234
598.617798	958.957703	18019.867188	5890.693848	28.906643
598.958435	958.279785	17681.343750	5767.418945	28.757523
599.299072	971.951843	17220.228516	5706.290527	29.137484
599.639587	969.466003	16778.318359	5575.898926	29.138313
599.980103	977.827515	16557.078125	5583.469238	29.562664
600.320557	970.370117	16285.333984	5529.571777	29.769588
600.661072	950.822449	16017.432617	5480.307617	30.063068
601.001404	950.144653	15926.698242	5455.336426	30.081633
601.341675	968.110168	15752.693359	5422.230469	30.126789
601.681946	957.715027	15723.767578	5438.614258	30.345953
602.022278	959.974731	15825.120117	5456.353516	30.247797
602.362427	943.929993	15776.987305	5493.076172	30.668970
602.702576	957.941040	15932.689453	5580.305176	30.867727
603.042725	945.963867	16154.830078	5675.331055	31.096119
603.382813	964.833496	16380.812500	5800.864258	31.370249
603.722839	960.878723	16769.501953	5907.867188	31.292974
604.062805	973.420776	17015.822266	6014.079102	31.420845
604.402771	1019.295288	17366.775391	6231.022461	31.880919
604.742737	962.912415	17757.160156	6305.257324	31.810562
605.082581	952.856323	17871.511719	6356.782227	31.940632
605.422363	959.296875	18086.531250	6464.463379	32.142765
605.762146	950.822571	18012.292969	6480.167969	32.408375
606.101929	952.856323	17944.501953	6441.638672	32.302826
606.441589	967.432251	17713.093750	6400.848633	32.446709
606.781189	967.093262	17372.425781	6317.687012	32.614967
607.120850	973.985718	16990.175781	6256.558105	32.982700
607.460388	961.330688	16619.562500	6118.935059	32.938614
607.799927	968.901062	16371.320313	6121.081543	33.450466
608.139404	960.878723	16153.135742	5987.413086	33.086159
608.478821	967.545105	16029.521484	6029.784668	33.609398
608.818298	978.505493	16024.888672	6029.333008	33.568386
609.157593	965.963257	16173.698242	6107.410156	33.808102
609.496887	971.725952	16246.353516	6171.814453	34.043961
609.836182	960.426758	16451.773438	6192.832031	33.776310
610.175415	948.336731	16538.548828	6307.969727	34.378189
610.514526	981.895020	16569.507813	6346.725586	34.417267
610.853699	980.200073	16557.302734	6343.335938	34.429611
611.192688	951.726379	16381.604492	6295.879883	34.635098
611.531799	946.076965	16212.908203	6264.354492	34.835503
611.870850	980.539246	15932.122070	6223.453125	35.065945
612.209778	962.912415	15644.901367	6090.008789	34.920990
612.548645	954.325195	15333.270508	6025.152832	35.265644
612.887573	960.539673	15066.948242	5931.595215	35.239697
613.226440	946.415710	14804.919922	5890.692383	35.676846
613.565186	952.065430	14619.051758	5805.497070	35.512085
613.903931	963.025574	14430.244141	5817.135254	36.043892
614.242676	964.042480	14343.463867	5741.543945	35.707832
614.581360	973.533691	14227.421875	5743.916992	35.992329
614.919983	949.692566	14091.494141	5679.286133	35.988930
615.258484	982.460083	13966.752930	5675.556641	36.144413
615.597046	955.455078	13982.117188	5702.110352	36.438000
615.935547	945.850891	13820.765625	5664.483887	36.649818
616.273987	954.777222	13819.862305	5682.223633	36.746326
616.612366	996.923035	13784.609375	5711.940430	36.871544
616.950806	965.963257	13813.309570	5705.725586	36.892925
617.289124	979.296387	13785.400391	5713.860840	36.971157
617.627380	975.680542	13741.559570	5680.528320	36.854866
617.965515	956.698059	13814.778320	5713.747559	36.996574
618.303772	969.917969	13885.059570	5724.030762	36.810379
618.641968	956.810913	13780.426758	5733.521484	37.249325
618.980042	948.788696	13770.373047	5795.214844	37.798965
619.318054	943.703979	13756.474609	5737.702637	37.415783
619.656128	947.884644	13747.098633	5748.323242	37.505730
619.994080	968.674988	13679.979492	5739.735840	37.534000
620.331970	976.358582	13688.001953	5776.910156	37.764996
620.669861	963.590515	13565.630859	5787.192383	38.276360
621.007751	946.980591	13488.911133	5710.244629	37.978714
621.345581	952.065308	13498.513672	5735.781250	38.128048
621.683289	950.144531	13500.776367	5753.407715	38.271088
622.020996	946.754761	13428.573242	5720.753418	38.247620
622.358704	937.263489	13379.309570	5749.113770	38.674107
622.696350	959.522766	13251.742188	5731.148926	38.818260
623.033875	980.765320	13273.662109	5719.285156	38.546814
623.371460	955.568176	13258.748047	5752.730469	38.991238
623.708984	974.663696	13263.833008	5733.069336	38.720322
624.046448	965.737305	13255.809570	5768.209961	39.076035
624.383789	960.878723	13231.065430	5777.250000	39.252632
624.721191	953.534180	13252.307617	5803.011719	39.430580
625.058533	933.421753	13235.583984	5779.622070	39.393078
625.395813	957.827942	13303.151367	5871.597656	39.802681
625.733032	965.511353	13447.895508	5896.116211	39.500507
626.070190	962.460632	13516.254883	5949.448242	39.724945
626.407410	985.284790	13668.115234	5988.655762	39.449959
626.744507	961.443726	13706.192383	6038.710938	39.838108
627.081543	952.291504	13862.122070	6065.942383	39.610519
627.418518	964.494507	13991.833984	6098.144531	39.406738
627.755554	952.517273	13995.904297	6126.958008	39.670994
628.092529	963.477356	14034.208008	6185.036133	39.948483
628.429382	958.166870	13904.041992	6135.545410	39.992496
628.766174	974.663574	13773.421875	6123.907227	40.232372
629.103027	967.206360	13723.593750	6084.246582	40.113552
629.439819	954.890259	13500.887695	6013.514648	40.320625
629.776489	967.432251	13333.434570	5959.278809	40.367508
630.113159	961.669739	13250.498047	5942.442871	40.530903
630.449829	973.081848	13023.952148	5829.451172	40.298908
630.786377	953.986328	12910.958984	5808.208984	40.597424
631.122925	996.132019	12868.927734	5831.823242	40.729172
631.459412	995.002136	12716.728516	5771.712891	40.750916
631.795898	960.313782	12628.931641	5722.448242	40.811466
632.132324	957.601929	12505.886719	5683.014648	40.918739
632.468689	963.816528	12413.008789	5652.393555	40.951160
632.804993	940.201172	12315.947266	5617.931152	41.120205
633.141296	933.986694	12252.558594	5561.096680	40.880684
633.477539	959.409851	12217.643555	5574.542480	40.993401
633.813721	944.156067	12171.883789	5575.221680	41.246685
634.149841	939.410278	12163.748047	5581.660156	41.358788
634.485962	966.189270	12126.685547	5609.795898	41.607529
634.822083	975.680542	12153.579102	5559.853516	41.011044
635.158020	975.002625	12077.876953	5578.158691	41.459141
635.494019	963.364563	12039.570313	5560.305664	41.502846
635.829956	966.302246	11847.711914	5516.012695	41.811771
636.165894	956.924011	11746.697266	5440.647949	41.555313
636.501709	977.036499	11671.669922	5455.788574	41.878498
636.837463	949.240540	11599.130859	5354.096680	41.360573
637.173279	977.262573	11438.908203	5340.424805	41.706268
637.509033	962.347656	11375.857422	5286.979980	41.529057
637.844666	948.788452	11251.456055	5245.398926	41.703861
638.180237	981.782227	11187.163086	5216.586426	41.495796
638.515869	940.653198	11078.579102	5175.118652	41.768559
638.851440	948.562622	10952.820313	5152.407227	42.020557
639.186890	962.912476	10867.962891	5130.938477	42.079803
639.522339	973.646667	10805.478516	5067.437500	41.638126
639.857727	947.658813	10790.562500	5091.956543	42.104424
640.193176	985.284790	10633.053711	5053.200195	42.164314
640.528442	948.449585	10603.675781	5031.732422	42.290905
640.863708	950.709473	10491.815430	5017.834473	42.627399
641.198914	950.596558	10451.364258	4964.840820	42.251789
641.534180	945.511841	10428.990234	4940.435547	42.125092
641.869263	932.743835	10347.636719	4932.525879	42.483566
642.204346	961.782593	10300.859375	4893.091797	42.095264
642.539368	950.031555	10197.472656	4892.526367	42.633358
642.874390	968.788086	10190.013672	4884.956055	42.469063
643.209412	932.065796	10105.498047	4842.923828	42.632439
643.544312	974.550781	10075.893555	4844.730957	42.523178
643.879150	966.076294	10078.039063	4834.449219	42.453785
644.213989	959.974792	9987.533203	4813.094238	42.681744
644.548828	965.511353	9928.779297	4827.217773	43.083691
644.883545	963.364563	9974.766602	4762.248047	42.156406
645.218262	946.076843	9878.837891	4795.806152	43.096748
645.552856	962.347656	9921.886719	4796.710449	42.796429
645.887573	982.121094	9879.063477	4804.167480	42.959099
646.222107	947.093750	9902.791016	4776.258789	42.756748
646.556580	954.438171	9905.616211	4821.454590	43.201202
646.891113	949.127625	9883.921875	4825.297363	43.382866
647.225586	956.472046	9920.192383	4784.055176	42.700829
647.559937	951.613281	9926.970703	4818.969238	43.088600
647.894226	943.478027	9913.638672	4829.930176	43.326450
648.228577	985.284790	9961.545898	4862.584473	43.195045
648.562927	951.952454	9895.898438	4822.584961	43.276562
648.897095	969.805054	9870.474609	4833.431641	43.408264
649.231262	930.935913	9851.266602	4787.784180	43.236603
649.565430	985.171875	9841.662109	4817.048340	43.266308
649.899475	954.551147	9830.927734	4774.225586	43.031906
650.233521	988.335571	9783.923828	4778.969727	43.096996
650.567505	952.178345	9746.295898	4751.739258	43.205711
650.901428	958.054016	9749.914063	4766.768066	43.320911
651.235413	957.263000	9724.942383	4716.034180	42.870762
651.569275	945.172852	9739.517578	4755.242676	43.324089
651.903015	982.798950	9692.287109	4783.264648	43.635925
652.236816	931.275024	9651.157227	4725.977539	43.517822
652.570618	956.924011	9616.583008	4701.910156	43.246346
652.904297	983.364136	9638.502930	4752.530273	43.548302
653.237915	955.229126	9548.450195	4692.080078	43.486034
653.571533	942.348145	9542.348633	4660.781738	43.237598
653.905090	963.477661	9448.677734	4644.284180	43.379139
654.238586	938.280457	9400.657227	4644.285156	43.793896
654.572021	958.618835	9310.037109	4615.133301	43.783157
654.905457	952.404480	9366.080078	4598.636719	43.336971
655.238892	968.449097	9311.845703	4589.031738	43.394588
655.572144	967.771118	9247.666016	4594.568848	43.802464
655.905457	959.070984	9147.104492	4546.208008	43.809505
656.238708	962.008789	9161.340820	4538.750488	43.622356
656.571960	960.539734	9203.487305	4553.213867	43.584824
656.905090	959.296875	9182.470703	4547.111816	43.630539
657.238159	956.133118	9164.842773	4548.241699	43.759724
657.571289	1000.425659	9257.720703	4591.291992	43.487198
657.904358	955.907043	9216.479492	4603.495117	44.156605
658.237305	954.551392	9286.762695	4621.573730	44.010197
658.570190	936.585571	9465.740234	4682.475586	43.918659
658.903076	945.285950	9523.704102	4718.519531	43.985191
659.236023	957.036987	9680.083984	4771.739258	43.731304
659.568787	944.833862	9821.436523	4831.285645	43.783100
659.901428	962.686523	9944.371094	4906.763184	43.912437
660.234192	956.924011	10027.759766	4931.848145	43.820923
660.566895	956.246094	10003.692383	4947.892578	44.119041
660.899536	966.641296	10044.822266	4927.441406	43.629887
661.232056	959.974792	9900.416992	4880.323242	43.849602
661.564636	940.088257	9746.072266	4811.173340	43.959709
661.897156	960.765747	9637.036133	4747.558594	43.645401
662.229553	943.026062	9459.865234	4692.192871	44.020638
662.561951	962.799500	9293.314453	4651.177246	44.275509
662.894287	980.991211	9232.185547	4630.500000	44.230068
663.226685	958.280090	9076.032227	4525.191406	43.939644
663.558899	981.104187	8971.064453	4503.044922	44.079575
663.891052	953.647278	8839.993164	4397.737305	43.671558
664.223328	977.488403	8773.441406	4395.025879	43.837330
664.555420	967.432251	8639.321289	4388.584961	44.593357
664.887512	949.805542	8574.349609	4317.739258	44.172264
665.219543	968.788208	8517.742188	4306.779785	44.217937
665.551575	968.675110	8500.680664	4324.519043	44.554455
665.883545	956.924011	8406.785156	4239.889160	44.067467
666.215454	948.223633	8395.937500	4265.763672	44.544407
666.547302	944.381958	8329.271484	4211.528320	44.240967
666.879150	1003.024536	8386.220703	4266.215820	44.197544
667.210938	959.748718	8328.707031	4218.307129	44.220066
667.542664	971.838745	8317.069336	4225.651367	44.298306
667.874268	959.070801	8312.324219	4200.906738	44.087097
668.205994	954.777161	8247.466797	4219.210938	44.763100
668.537537	972.855835	8294.019531	4198.081543	44.053455
668.869080	963.138489	8315.487305	4192.770996	43.926544
669.200562	954.777161	8206.337891	4152.319824	44.094547
669.532043	949.014526	8243.060547	4210.397461	44.712948
669.863525	967.093262	8247.580078	4219.437500	44.672070
670.194824	958.166870	8233.004883	4182.941406	44.327785
670.526184	958.844849	8231.420898	4187.686523	44.397495
670.857483	970.821960	8161.480469	4158.647461	44.332870
671.188660	957.150024	8152.892090	4165.314453	44.584206
671.519897	952.743469	8084.646973	4105.654785	44.208553
671.851013	952.178345	8046.229004	4105.768555	44.454014
672.182129	977.262512	7999.338379	4109.835449	44.610355
672.513184	941.331238	7952.559570	4070.966309	44.637470
672.844238	999.860718	8012.332031	4097.632813	44.175182
673.175171	957.714966	7887.928711	4049.385254	44.611473
673.506104	984.380737	7908.153809	4061.475342	44.442455
673.836975	951.726379	7836.517090	4017.069580	44.523407
674.167786	962.686523	7808.834473	3999.330566	44.355515
674.498596	952.743286	7780.134277	4001.024170	44.647812
674.829407	951.161316	7726.802246	3967.579346	44.518562
675.160034	960.539673	7729.740723	3990.064453	44.754539
675.490723	938.958313	7673.921875	3985.884033	45.240421
675.821289	934.438660	7636.748535	3946.337158	44.938213
676.151917	966.076355	7618.443848	3942.721191	44.745644
676.482422	957.036987	7611.100098	3936.619873	44.778400
676.812927	948.449585	7570.083496	3913.682373	44.780987
677.143311	965.511414	7579.348633	3909.276123	44.509178
677.473694	959.522766	7533.474121	3864.305176	44.186249
677.804016	938.054504	7577.314941	3951.083252	45.381996
678.134338	946.754883	7550.760742	3907.129395	44.826950
678.464539	975.680542	7592.003906	3943.399170	44.854500
678.794800	973.194824	7590.083496	3964.754639	45.210976
679.124878	962.347534	7641.267090	3948.257813	44.706486
679.455078	956.020142	7665.334961	3976.731689	45.022652
679.785095	953.421265	7734.033691	4007.013184	45.034161
680.115173	932.743835	7796.178711	4017.295410	44.941803
680.445129	952.291321	7809.963867	4035.261719	44.956512
680.775024	975.228638	7902.955566	4074.130371	44.731869
681.104919	958.618958	7932.899414	4076.615967	44.707081
681.434814	943.704102	7937.079102	4090.400879	44.995396
681.764526	936.020630	7912.561035	4089.270752	45.197903
682.094360	938.167358	7975.609375	4110.739258	45.081322
682.424011	988.335449	8017.303711	4133.450195	44.745041
682.753723	965.511536	7982.276367	4090.287842	44.533009
683.083313	969.353027	7921.260742	4083.847168	44.800568
683.412903	965.059448	7917.306152	4067.689941	44.627739
683.742432	944.382019	7791.660156	4012.323730	44.805271
684.071899	955.455200	7729.289063	4026.334717	45.334435
684.401306	968.901062	7620.025879	4009.612793	45.717255
684.730713	1559.507080	7786.349121	4600.104492	48.830490
685.060059	1033.193115	7439.013184	3931.196045	45.240154
685.389404	978.844360	7368.959473	3863.514404	45.142689
685.718628	968.223022	7241.391602	3825.549561	45.548382
686.047852	950.257507	7247.379883	3794.702393	45.170547
686.376953	993.194214	7207.493652	3819.447754	45.479839
686.706116	952.969360	7190.319336	3777.866455	45.290016
687.035156	961.217651	7177.890625	3788.826904	45.484287
687.364197	943.930054	7201.958008	3787.245361	45.434689
687.693176	968.223022	7161.393555	3807.131592	45.839344
688.022156	947.432800	7232.013184	3806.453857	45.492630
688.351013	951.387329	7221.957031	3796.397705	45.370842
688.679871	952.065430	7223.991211	3787.697266	45.211502
689.008606	974.437683	7226.928711	3794.702393	45.106255
689.337402	939.184265	7191.110352	3773.233643	45.330818
689.666138	947.884766	7083.654785	3774.929199	46.074810
689.994751	949.579468	7022.415039	3707.021484	45.406170
690.323364	951.839478	6934.618652	3656.740234	45.211445
690.651917	951.387390	6867.616211	3622.051514	45.141323
690.980469	975.567566	6789.651367	3632.673096	45.701187
691.308960	980.426147	6745.246094	3588.719482	45.245014
691.637451	971.951843	6673.497070	3546.121826	45.148636
691.965759	958.732056	6565.928711	3501.941895	45.356174
692.294128	975.906555	6486.948242	3507.365234	45.934307
692.622437	953.421265	6438.475586	3447.253906	45.465958
692.950684	968.788208	6379.380371	3444.090332	45.749191
693.278870	957.714844	6374.182617	3403.978516	45.163448
693.607117	946.528809	6287.630859	3385.221924	45.658989
693.935120	969.014038	6243.677246	3395.165527	45.996330
694.263245	953.195190	6209.215820	3360.477051	45.800465
694.591248	975.341614	6218.254395	3393.244629	46.117554
694.919250	952.856262	6162.662598	3340.815918	45.835865
695.247192	957.150024	6134.979492	3330.985840	45.846157
695.575073	966.528198	6134.753418	3344.544434	46.012241
695.902893	945.285828	6159.499023	3316.975342	45.485085
696.230774	960.313660	6115.883789	3313.924561	45.651802
696.558411	966.641235	6193.735840	3347.934326	45.556721
696.886169	962.347534	6186.842773	3321.607910	45.157669
697.213806	942.913086	6194.526367	3343.867188	45.718410
697.541443	964.155457	6297.461914	3390.193359	45.488438
697.869019	942.574036	6367.290039	3454.711426	46.309109
698.196533	949.466492	6489.660645	3468.948486	45.476418
698.524048	945.624878	6637.339844	3550.979980	45.774517
698.851501	974.437805	6777.448242	3633.463623	45.821491
699.178772	960.991821	6942.416504	3678.321533	45.429470
699.506226	970.821899	7033.148438	3716.851563	45.296631
699.833435	974.098633	7142.636719	3764.308105	45.232914
700.160767	944.043091	7061.848633	3746.116699	45.801941
700.487915	946.076843	7018.459473	3728.150879	45.815193
700.815063	956.472046	6905.241211	3688.378174	45.923893
701.142151	939.975403	6787.278809	3608.944580	45.644447
701.469238	971.386902	6680.728027	3599.114502	46.025055
701.796265	945.172974	6510.901855	3513.354004	46.142765
702.123230	961.217590	6411.243652	3464.428467	45.930260
702.450134	963.251587	6221.192383	3390.419189	46.161938
702.777039	975.454590	6139.951660	3353.696777	46.049831
703.103882	972.403809	6029.446289	3301.494873	46.056389
703.430664	976.019653	5898.489258	3252.343750	46.243538
703.757385	954.664063	5799.508301	3187.034912	46.077248
704.084106	950.031555	5720.075684	3104.212646	45.160614
704.410767	941.783081	5650.134277	3086.246582	45.545952
704.737366	962.799500	5579.401367	3065.569092	45.547993
705.063904	993.872192	5624.372070	3096.980957	45.418613
705.390442	960.313782	5487.313477	3052.575439	46.217407
705.716919	962.347534	5450.930176	3015.175049	45.734428
706.043396	947.771667	5397.485352	2998.565186	46.088211
706.369690	956.698059	5376.355957	3008.960449	46.434872
706.696106	975.341614	5438.161621	3024.440186	45.914886
707.022278	962.686646	5329.688965	2977.209717	46.130569
707.348633	942.800110	5377.824707	2979.469482	45.922394
707.674805	955.455078	5370.706543	2987.379395	46.020580
708.000916	953.534180	5390.367676	2997.322510	46.064121
708.327026	939.071289	5335.226563	2977.548828	46.369553
708.653076	943.930054	5351.723633	2989.300049	46.403488
708.979065	950.596375	5362.909180	2995.062500	46.335472
709.305054	951.274414	5363.587891	2986.249268	46.120361
709.630920	956.133118	5385.508789	2999.921143	46.141678
709.956787	954.212219	5419.971191	3030.202637	46.486847
710.282593	931.839966	5451.608398	3035.400391	46.541332
710.608459	953.760254	5461.890625	3040.598145	46.290539
710.934082	943.365051	5497.595215	3079.467285	46.903698
711.259827	942.461060	5626.857910	3085.229492	45.742676
711.585449	954.325195	5625.502441	3097.206787	45.874550
711.911072	966.528320	5719.170898	3150.539063	45.953609
712.236572	944.381958	5706.290039	3134.042236	45.982830
712.562073	967.997070	5687.872559	3146.244873	46.150536
712.887512	959.296753	5675.331543	3138.109375	46.200096
713.213013	940.201355	5618.270508	3105.794189	46.292446
713.538330	954.551147	5608.553711	3110.992188	46.335190
713.863647	947.545715	5546.634277	3054.495850	45.812344
714.188904	962.347656	5471.495117	3027.151855	45.791454
714.514099	963.477539	5424.264648	3021.050293	46.125778
714.839294	965.285339	5378.728516	3003.988770	46.193035
715.164490	968.562012	5367.316895	2991.220947	45.982533
715.489502	991.499390	5343.475098	3007.378418	46.321011
715.814575	971.612976	5287.544434	2955.289551	45.961723
716.139526	973.759766	5296.131348	2976.418701	46.332409
716.464539	948.901672	5261.782227	2934.273438	46.033546
716.789368	944.381836	5246.528320	2943.199707	46.460945
717.114258	966.754395	5218.506836	2940.826660	46.429615
717.439026	976.132507	5195.569336	2885.686768	45.256138
717.763794	946.302734	5158.282715	2898.342285	46.344940
718.088440	951.613403	5107.210449	2863.201660	46.000328
718.413208	944.720886	5033.879883	2841.846191	46.394020
718.737793	964.607544	4990.942871	2835.179688	46.458427
719.062378	974.324707	4933.090820	2838.908203	47.100117
719.386841	959.748718	4866.651367	2758.119629	46.030605
719.711304	959.070679	4813.658203	2744.673340	46.324093
720.035767	956.472046	4776.597656	2693.375732	45.467190
720.360168	958.279785	4755.016602	2688.968994	45.583595
720.684570	964.381470	4684.848633	2679.590332	46.101974
721.008789	967.997070	4688.238770	2679.364746	46.001518
721.333069	967.319214	4645.866211	2668.969482	46.258762
721.657227	954.777222	4557.620117	2639.139648	46.750927
721.981445	955.342163	4543.496094	2621.400391	46.432186
722.305481	969.240112	4548.128906	2626.823730	46.315598
722.629578	945.624817	4500.220703	2621.400146	47.143906
722.953552	946.528687	4477.395996	2591.909424	46.599903
723.277588	952.743469	4475.927246	2596.767822	46.663033
723.601440	950.031555	4391.749023	2548.746582	46.451084
723.925354	929.467102	4460.673340	2574.847656	46.595425
724.249146	978.844421	4442.820801	2595.186035	46.661449
724.572937	965.850403	4453.104004	2586.146729	46.463394
724.896667	958.054016	4411.635254	2561.288574	46.422379
725.220398	948.901733	4417.511230	2553.492432	46.260345
725.543945	945.172974	4388.584961	2573.265625	47.281376
725.867615	948.336731	4396.946289	2556.543213	46.633476
726.191101	968.675110	4428.019043	2559.254639	45.979225
726.514648	981.443176	4447.454102	2594.281738	46.532993
726.838074	979.522278	4442.369629	2585.468506	46.376469
727.161499	947.658691	4478.526367	2579.819092	46.225475
727.484863	980.878235	4530.163086	2613.942627	46.011086
727.808228	990.934387	4520.897461	2632.247314	46.496605
728.131470	963.590515	4556.489746	2629.083496	46.355125
728.454712	956.810913	4582.817383	2642.190674	46.480331
728.777832	945.624817	4605.641602	2643.433350	46.388000
729.101013	945.398804	4556.038086	2671.455322	47.804737
729.424011	962.460632	4601.234863	2684.110107	47.313995
729.747070	964.381470	4632.081055	2656.540527	46.136795
730.070068	962.573547	4585.642090	2648.518066	46.533607
730.393005	950.144531	4569.258789	2649.309082	46.949734
730.715881	942.348022	4558.750488	2642.755371	47.019306
731.038757	940.314331	4539.654785	2627.501709	46.874905
731.361572	945.172974	4563.495117	2642.190674	46.900681
731.684326	947.771667	4596.037109	2634.168457	46.224617
732.007019	952.743286	4564.852051	2649.760986	46.981354
732.329712	950.935425	4592.083008	2659.365234	46.920094
732.652283	952.065247	4630.952148	2666.935547	46.613838
732.974854	951.726379	4659.200195	2676.313965	46.516514
733.297363	956.359009	4660.103516	2700.268066	47.085026
733.619873	980.200195	4638.974121	2677.104736	46.379047
733.942261	939.071411	4625.641113	2664.788818	46.810925
734.264648	969.466003	4609.031738	2663.997559	46.558617
734.586975	937.037476	4515.587891	2633.038330	47.393517
734.909302	942.574036	4461.238281	2592.812988	46.899586
735.231506	953.195190	4456.266602	2586.372803	46.621307
735.553711	943.477905	4385.195313	2546.260742	46.569275
735.875854	961.217651	4334.349121	2557.785889	47.331932
736.197937	943.930054	4269.152832	2492.703125	46.576523
736.519958	937.602539	4229.832520	2473.946045	46.665741
736.841980	954.325195	4172.319824	2486.601318	47.615868
737.163940	952.969238	4158.534668	2437.224121	46.302437
737.485840	974.889648	4139.552734	2469.991699	47.243641
737.807678	956.471985	4101.700195	2424.343262	46.669788
738.129517	930.370972	4082.604736	2419.823242	47.250690
738.451233	960.426758	4167.122070	2429.088379	45.799850
738.773010	935.568665	4100.344238	2422.760742	46.992023
739.094666	945.173035	4178.308105	2451.687012	46.596073
739.416260	985.171875	4201.697754	2488.635254	46.741840
739.737854	946.528809	4180.567871	2474.624268	47.250370
740.059448	957.714966	4188.929199	2474.623779	46.945473
740.380859	948.788696	4193.223633	2454.398926	46.405930
740.702332	949.014526	4171.415527	2464.681152	47.035320
741.023682	943.591125	4136.953125	2437.902100	46.794289
741.345032	939.071411	4083.960449	2427.845703	47.339485
741.666321	951.726379	4070.740723	2416.546387	46.964195
741.987549	963.251587	4045.430420	2377.112793	45.872135
742.308777	961.443665	4009.386230	2391.123535	46.906391
742.629944	963.590515	3942.607910	2365.474365	47.058598
742.950989	983.589966	3911.422363	2363.779785	47.140327
743.272095	957.262878	3854.362061	2315.758301	46.891575
743.593140	957.263000	3853.344971	2318.809082	47.013382
743.914063	954.099243	3795.832520	2299.148682	47.332008
744.234985	940.766235	3784.872559	2261.522705	46.438362
744.555847	961.669617	3717.303467	2259.601807	47.101040
744.876648	973.646790	3715.382080	2242.427002	46.276539
745.197449	951.387390	3686.005127	2225.704590	46.599464
745.518188	978.731323	3669.847168	2234.743652	46.672550
745.838867	970.821899	3649.960205	2208.190674	46.185329
746.159485	975.002625	3641.260254	2213.275391	46.442352
746.480042	971.160828	3595.159668	2183.445557	46.199894
746.800537	954.438293	3580.809814	2211.354248	47.857510
747.121094	966.302368	3585.894531	2199.716309	47.084194
747.441528	953.534363	3563.973877	2194.405518	47.534950
747.761902	944.608032	3546.121582	2161.072754	46.759880
748.082275	950.935425	3530.980957	2175.648926	47.468681
748.402588	982.460083	3588.719238	2201.072021	46.757126
748.722839	972.968872	3582.504639	2187.400146	46.538212
749.043030	956.246094	3565.442627	2183.219482	47.024952
749.363159	950.257507	3547.816406	2173.050293	47.074688
749.683289	971.386841	3592.786621	2200.959473	46.905190
750.003357	952.969238	3550.528564	2186.156982	47.474865
750.323303	940.653320	3545.104248	2185.027100	47.778736
750.643311	956.246094	3554.822266	2175.083984	46.904068
750.963257	1012.402710	3579.341064	2219.941650	47.041988
751.283142	972.742859	3549.172607	2195.761230	47.469501
751.602905	944.833862	3471.885986	2146.384521	47.547520
751.922729	983.929016	3511.320313	2182.654297	47.429352
752.242432	963.703613	3459.909424	2124.238281	46.491947
752.562134	958.957886	3453.694580	2118.249512	46.469498
752.881714	954.325317	3428.045410	2100.623047	46.339020
753.201355	966.076355	3422.282715	2100.170898	46.172607
753.520874	948.788696	3408.610840	2094.973145	46.596230
753.840393	950.935425	3417.650391	2103.221680	46.713394
754.159851	963.364624	3394.374268	2112.825684	47.283276
754.479248	963.025574	3373.583496	2108.871338	47.534462
754.798523	969.918091	3392.905029	2092.035400	46.311325
755.117859	969.805176	3385.108643	2094.860352	46.580284
755.437134	948.223633	3350.985596	2081.979004	47.185505
755.756348	978.731445	3348.838623	2100.396729	47.325508
756.075500	974.437805	3343.753906	2076.216797	46.501984
756.394653	960.087891	3315.393066	2062.431641	46.802586
756.713623	966.867188	3283.303467	2048.307861	46.685535
757.032654	988.109558	3312.568359	2077.798340	46.879246
757.351624	955.342102	3277.314941	2074.860840	48.214119
757.670532	949.353638	3269.857666	2055.652100	47.674923
757.989441	954.551270	3268.840332	2043.336182	47.046192
758.308289	945.850769	3310.082764	2061.527832	47.189827
758.627014	967.658203	3308.500732	2053.505371	46.387024
758.945801	958.845032	3316.410156	2062.770508	46.824814
759.264404	957.375977	3325.901611	2073.166016	47.109055
759.583130	952.856323	3383.526611	2090.453613	46.801792
759.901611	957.715027	3362.510498	2089.662598	47.070427
760.220215	986.414734	3371.662598	2095.538330	46.499302
760.538635	978.166321	3395.503418	2101.187744	46.456966
760.857117	952.630249	3352.567139	2055.086914	45.936901
761.175537	991.047241	3392.904785	2143.220215	47.970081
761.493896	952.969360	3355.957031	2079.719238	46.889538
761.812134	966.528320	3377.086426	2099.719238	47.009483
762.130432	995.454224	3387.707031	2123.221191	47.142464
762.448608	970.369995	3382.171143	2106.385254	47.102356
762.766785	987.205688	3402.396484	2111.582764	46.554375
763.084900	991.386414	3490.868408	2164.575928	46.937305
763.402954	956.472046	3622.729248	2220.054688	47.391624
763.720947	948.675659	3790.635254	2312.143066	47.976315
764.038940	956.471863	3976.731934	2410.783936	48.151882
764.356750	983.702942	4203.957031	2496.883301	46.989471
764.674683	964.720398	4291.977539	2542.758057	47.427582
764.992493	939.071289	4403.387207	2572.927002	47.162434
765.310303	955.907104	4422.595703	2622.191406	48.065590
765.627930	937.263367	4311.525391	2548.068604	47.737999
765.945679	989.804504	4201.923340	2501.290527	47.055733
766.263306	975.002625	4047.464355	2409.767090	46.697552
766.580872	967.432129	3895.264893	2333.385254	46.654068
766.898376	953.195435	3798.431152	2277.341064	46.539047
767.215881	957.036804	3649.847656	2229.093994	47.239010
767.533325	970.934937	3580.696777	2211.354248	47.529984
767.850708	951.048462	3457.649658	2128.757813	46.984314
768.168030	964.720520	3409.062988	2119.605469	47.247265
768.485352	963.477539	3303.980957	2077.346680	47.591007
768.802551	952.969238	3261.722168	2035.878540	46.904510
769.119751	947.319641	3198.447021	1991.360352	46.378571
769.436890	942.009155	3179.012451	2002.094116	47.388615
769.753967	946.641785	3125.228760	2004.240967	48.545189
770.071045	950.144531	3106.585449	1942.321899	46.009949
770.388062	981.669250	3074.269531	1971.925781	47.321819
770.704956	956.133118	3040.372314	1927.859009	46.622570
771.021912	977.601379	3017.434814	1952.378174	47.787075
771.338684	955.342102	3014.948730	1917.237671	46.702877
771.655579	957.488953	2962.859863	1902.209717	47.109528
771.972351	983.589966	2975.628174	1914.864990	46.749859
772.289063	950.935425	2939.583984	1874.753174	46.454552
772.605713	972.855774	2916.985596	1900.967163	47.739166
772.922302	963.703491	2909.866699	1867.408569	46.435215
773.238831	973.194946	2918.341309	1868.312500	46.018005
773.555420	1010.029968	2909.641113	1905.825562	47.156788
773.871826	960.200806	2878.116699	1847.182983	46.247189
774.188293	1001.103638	2888.285400	1874.187866	46.263920
774.504639	975.906616	2850.207764	1865.374756	47.455990
774.820984	978.618347	2847.834717	1861.532959	47.234482
775.137207	968.675110	2816.988281	1834.189209	46.827240
775.453552	944.043091	2798.457520	1805.715210	46.465996
775.769592	952.291382	2829.416992	1855.205444	48.100887
776.085815	938.280457	2782.638916	1807.748779	47.142048
776.401855	956.924011	2758.684326	1806.958008	47.177975
776.717896	957.488953	2765.012207	1798.031982	46.502476
777.033875	969.353027	2756.650635	1811.364868	47.110893
777.349854	959.748840	2748.176025	1782.665039	46.013401
777.665710	954.325317	2735.747314	1785.602783	46.663704
777.981567	966.754272	2744.108887	1795.207031	46.611561
778.297363	944.155945	2711.793213	1758.936768	46.094345
778.613098	949.805481	2698.233887	1778.936157	47.421482
778.928772	953.873230	2692.245361	1752.044189	45.914852
779.244385	970.483032	2723.318115	1784.585571	46.444901
779.559998	960.652710	2689.872559	1791.817383	48.065876
779.875488	947.206726	2666.596191	1758.145874	47.164368
780.191040	1000.086731	2714.731201	1817.240234	47.657314
780.506470	950.596558	2684.787842	1766.733154	47.061508
780.821899	959.635742	2669.873291	1767.975830	47.264786
781.137207	950.822388	2658.800293	1763.230713	47.565506
781.452576	936.585632	2655.410400	1749.332764	47.285049
781.767822	965.963379	2670.664551	1740.293335	45.423206
782.083069	938.167480	2627.953613	1736.903564	47.268471
782.398193	938.845337	2622.642578	1731.931885	47.101070
782.713379	945.850769	2589.084473	1727.638062	47.576149
783.028381	960.878784	2591.005127	1740.858154	47.847786
783.343384	943.591125	2560.610840	1698.260498	46.670387
783.658386	945.850891	2562.079590	1709.446533	47.245518
783.973328	948.788696	2533.831787	1690.125000	46.770737
784.288086	980.539185	2548.520508	1735.434814	48.144428
784.602966	959.183960	2506.826904	1677.470093	46.411617
784.917725	957.036926	2531.685059	1701.650146	47.287594
785.232483	950.144531	2498.578369	1690.576904	47.818146
785.547119	980.426147	2494.736572	1676.340210	45.955837
785.861755	967.771118	2480.273926	1691.593994	47.855968
786.176270	941.444153	2455.641602	1662.216064	47.600918
786.490845	954.551147	2468.522949	1675.887939	47.645325
786.805298	919.862671	2407.959473	1673.628296	50.652996
787.119751	962.799500	2459.370605	1670.351807	47.278229
787.434143	954.890015	2436.771973	1656.566772	47.350380
787.748474	957.036926	2481.629639	1678.713135	47.335670
788.062744	960.200867	2455.302490	1648.883179	46.062576
788.377014	951.726379	2488.521973	1683.119507	47.592087
788.691162	961.669739	2511.459473	1678.712891	46.267124
789.005310	972.177856	2575.299561	1711.367554	46.109394
789.319397	958.392883	2570.215088	1725.604248	47.599007
789.633423	960.426758	2592.926025	1698.825562	45.231186
789.947449	961.330750	2595.186035	1723.231445	46.632080
790.261414	942.687012	2569.197754	1703.006104	46.745407
790.575256	959.183777	2549.650391	1687.978271	45.822685
790.889160	960.652710	2541.515381	1704.249268	47.037392
791.202881	952.178345	2502.419922	1664.136963	45.925655
791.516663	950.031616	2441.291748	1655.323608	47.295033
791.830322	957.149902	2448.523193	1657.357666	46.950535
792.144043	941.105286	2414.399658	1650.238892	48.132511
792.457581	985.397949	2415.981934	1628.318848	44.941151
792.771118	957.714966	2352.593506	1610.692139	46.812477
793.084656	1001.329468	2380.728516	1648.205322	46.895485
793.398071	972.064758	2349.768799	1612.048096	46.452888
793.711487	961.217773	2294.063965	1586.398804	46.905716
794.024841	936.133606	2287.623535	1578.715576	47.546188
794.338135	965.850464	2284.346924	1582.218018	46.747761
794.651428	946.189819	2240.279785	1580.184448	48.991543
794.964600	973.194702	2285.137939	1585.043091	46.636803
795.277771	963.477539	2255.872559	1586.286011	48.190258
795.590881	967.884155	2268.754150	1595.099243	48.215046
795.903931	990.934448	2294.516113	1624.590088	48.608818
796.216980	945.398926	2269.883789	1585.608154	48.336472
796.529907	971.273743	2339.825439	1629.222656	48.076290
796.842834	957.601929	2317.905273	1611.031128	48.035549
797.155701	977.940430	2322.876953	1617.810669	47.576241
797.468506	973.646790	2350.785645	1616.002930	46.644253
797.781250	978.618347	2358.017090	1618.601318	46.395794
798.093994	952.743347	2318.470215	1591.031494	46.736153
798.406677	953.873230	2298.357666	1558.603149	44.978577
798.719238	956.697937	2304.798340	1568.094482	45.352451
799.031921	963.251465	2273.047852	1592.726563	48.059006
799.344360	969.805054	2266.042480	1583.800049	47.367481
799.656860	979.522278	2260.957764	1566.512451	45.807232
799.969299	956.698120	2229.206787	1543.123169	46.084167
800.281677	961.104675	2241.862061	1543.349121	45.460949
800.593933	959.748718	2234.517334	1525.835693	44.407040
800.906250	949.466492	2185.365723	1519.508057	46.123631
801.218445	948.788574	2169.886230	1521.881104	46.932571
801.530640	964.155396	2166.835693	1530.694092	47.106342
801.842712	961.104797	2127.740723	1519.282104	47.845028
802.154846	964.155396	2152.485840	1519.734009	46.752872
802.466797	951.839478	2143.333252	1501.655518	46.145103
802.778870	954.890259	2120.735107	1502.672241	46.985840
803.090759	961.104675	2140.282715	1489.000244	44.768101
803.402649	950.031616	2089.436523	1487.418701	47.163837
803.714478	945.172729	2086.837891	1486.288574	47.397072
804.026245	957.488892	2105.255371	1485.158569	45.973610
804.337952	951.274536	2080.058594	1490.130493	47.737736
804.649658	971.386902	2084.013184	1506.965942	48.136475
804.961243	963.590637	2073.279053	1489.904419	47.428967
805.272888	965.737305	2088.758545	1510.807739	48.536076
805.584412	948.336609	2089.549561	1514.988403	49.653469
805.895874	954.777161	2078.702637	1478.605103	46.606998
806.207336	944.607910	2117.797363	1485.723633	46.123474
806.518677	962.234680	2109.888184	1490.808350	46.056900
806.830017	956.585083	2080.623291	1504.141357	48.713314
807.141357	942.574219	2106.724365	1497.361816	47.656017
807.452576	967.771301	2096.781006	1494.084961	46.617283
807.763733	959.522827	2081.979004	1497.700928	47.946468
808.074890	941.218262	2074.635010	1467.306030	46.416092
808.385925	963.138550	2106.724121	1512.276611	48.018974
808.697021	959.635742	2065.256348	1509.564697	49.739391
809.007935	977.714355	2072.035889	1514.310669	49.034611
809.318909	987.092651	2057.912109	1488.322510	46.808064
809.629822	961.443665	2051.583984	1467.080078	46.382687
809.940674	960.313660	2031.133179	1449.340576	45.668468
810.251404	955.568176	2022.093750	1455.442017	46.869370
810.562195	974.550598	2030.229126	1499.734497	49.748470
810.872864	944.494995	1992.829102	1436.233643	46.906673
811.183533	965.285461	1987.292603	1425.386353	45.019341
811.494080	962.460571	1979.835205	1429.679932	45.924023
811.804626	952.178345	1949.101318	1423.578369	47.285500
812.115112	942.009094	1943.338867	1405.725708	46.310078
812.425598	943.477905	1916.333984	1398.946045	46.817627
812.735962	936.246460	1913.509033	1386.404175	46.063129
813.046326	948.901550	1915.203857	1386.856323	45.322750
813.356628	975.680542	1956.558838	1419.623657	45.259754
813.666870	958.731750	1908.989502	1407.533691	47.229496
813.976990	961.217651	1897.803345	1388.777100	45.650864
814.287170	956.472046	1899.498047	1379.737671	44.883770
814.597290	962.008606	1914.639038	1401.884033	46.174824
814.907349	941.218262	1888.650635	1387.082153	47.060234
815.217346	989.013489	1937.350342	1443.125854	47.885132
815.527283	960.539856	1896.673218	1402.675171	47.229950
815.837158	942.348022	1875.205078	1378.607666	46.765968
816.147034	959.296875	1886.278076	1405.160767	48.098484
816.456787	965.285461	1902.661865	1399.172119	46.287346
816.766541	967.997192	1899.497803	1397.025391	46.057747
817.076233	966.867188	1929.441040	1408.550537	45.885658
817.385925	989.578613	1887.973267	1408.098511	46.585304
817.695496	998.504761	1949.214478	1444.933838	46.957455
818.005066	969.240234	1919.497681	1409.341431	46.313892
818.314514	965.059387	1917.915649	1411.827148	46.887215
818.623962	949.579712	1887.181885	1410.584351	49.168468
818.933350	969.579102	1921.644287	1406.629639	45.905525
819.242737	986.753784	1953.055908	1432.165771	46.094486
819.552002	966.641235	1973.055420	1452.165283	48.242966
819.861328	969.240112	2016.444336	1440.527100	45.004307
820.170471	953.647095	2044.127197	1448.662354	45.394249
820.479675	969.353027	2095.989746	1494.762939	46.635254
820.788696	967.545105	2150.564941	1514.875488	46.265530
821.097839	963.816589	2233.613525	1572.275146	47.917786
821.406738	980.426147	2368.412598	1630.465576	46.833267
821.715698	958.505859	2435.867920	1653.854858	47.066933
822.024597	960.652649	2722.301514	1788.653564	47.001472
822.333435	987.318542	3276.185059	2074.635010	47.504581
822.642273	954.325195	4062.153076	2414.738770	46.991455
822.950989	966.189148	4827.104492	2819.587402	48.004116
823.259705	961.217773	5504.375000	3078.789063	46.610126
823.568359	968.336060	6007.187012	3348.951172	47.245201
823.876953	988.222534	6433.051758	3551.884033	47.084335
824.185486	941.557251	6535.986328	3586.798340	47.283485
824.494019	965.511353	6444.351074	3525.330811	46.721924
824.802429	954.099243	5915.438477	3319.008545	47.666748
825.110840	953.308289	5387.768066	3086.359863	48.101719
825.419189	964.268433	5030.941406	2877.437988	47.045082
825.727478	990.595520	4722.135742	2756.537598	47.324749
826.035767	960.313782	4420.674805	2616.767334	47.869385
826.343933	959.861816	4257.967285	2525.244141	47.463078
826.652100	960.539734	4011.081299	2403.439697	47.299797
826.960144	949.918335	3877.638184	2359.373047	48.141724
827.268250	958.279907	3796.510498	2287.171387	46.821125
827.576233	980.765259	3829.843262	2342.989258	47.812798
827.884155	967.545288	3816.848877	2330.447021	47.832798
828.192017	952.856323	3788.262207	2329.317139	48.545460
828.499878	958.279968	3747.246094	2300.617432	48.130287
828.807678	953.421204	3743.178223	2288.753418	47.865540
829.115479	954.890259	3677.643799	2245.364746	47.395935
829.423096	946.867798	3483.750000	2165.027588	48.017986
829.730835	947.206726	3267.484863	2056.556152	47.811054
830.038330	963.703491	3047.264648	1955.428711	47.597607
830.345947	956.359070	2892.014648	1880.515625	47.743855
830.653442	950.935547	2743.204834	1797.805908	47.251289
830.960876	951.500305	2627.614746	1755.885986	47.991093
831.268250	952.517456	2524.679199	1710.124390	48.188866
831.575623	956.245972	2401.518555	1647.866455	47.853981
831.882874	945.963867	2310.899414	1575.325928	46.109287
832.190125	949.240540	2226.495117	1539.168701	46.187202
832.497314	969.127136	2155.762451	1547.416870	48.733570
832.804504	1007.770142	2086.724854	1512.841553	46.811176
833.111572	965.737488	2024.127563	1460.187622	46.717190
833.418640	945.172852	2065.708496	1467.306030	46.596748
833.725586	959.974915	2109.097168	1500.073364	47.000954
834.032532	964.946411	2208.755371	1544.592041	46.602463
834.339417	964.946411	2372.706055	1615.324829	46.199535
834.646301	950.483521	2461.969238	1676.678955	48.045139
834.953003	972.290833	2588.745361	1731.027954	46.938351
835.259827	976.132446	2629.648438	1732.157959	45.722298
835.566467	975.680542	2672.811035	1779.162354	47.343548
835.873108	966.754272	2644.450439	1765.038452	47.582165
836.179688	952.856323	2565.017334	1722.101563	47.715160
836.486267	939.297363	2496.431641	1683.006836	47.761421
836.792664	940.427246	2384.795898	1645.945557	48.846138
837.099121	963.138489	2309.882813	1610.240112	48.049328
837.405518	977.827332	2255.194824	1593.517578	48.199932
837.711792	961.895630	2158.361084	1509.564819	45.773926
838.018127	945.850891	2062.883789	1487.531616	48.492813
838.324341	955.907104	2023.788696	1453.295044	46.577068
838.630554	942.687134	1961.417358	1431.148926	47.948101
838.936646	946.867798	1899.498047	1395.104614	47.052547
839.242737	954.890137	1841.759521	1359.060303	45.572681
839.548767	970.596008	1796.676025	1350.811768	46.026505
839.854797	978.957336	1753.061279	1325.162964	44.723404
840.160645	965.624207	1751.705078	1330.473389	46.413696
840.466553	948.562683	1732.722900	1314.767700	46.700279
840.772400	965.737183	1735.773804	1331.038452	47.439468
841.078186	962.347534	1749.784546	1331.829468	46.922092
841.383850	964.155579	1751.931396	1319.287354	45.080311
841.689575	951.387512	1770.801025	1331.151245	46.345798
841.995178	962.912476	1749.558594	1328.778809	46.509647
842.300781	944.269043	1747.863525	1318.496582	46.569202
842.606262	964.155457	1722.892334	1316.010620	46.373806
842.911743	960.087585	1685.040405	1294.316406	46.103527
843.217163	949.353638	1653.628662	1268.780151	45.355366
843.522583	947.997681	1630.578735	1265.390381	46.498901
843.827881	947.884766	1609.901367	1260.983765	47.294735
844.133179	947.771790	1587.189819	1246.634033	46.739727
844.438354	949.918579	1562.105835	1224.826416	44.905842
844.743530	957.827942	1553.631470	1222.792725	44.471840
845.048645	973.307800	1559.054932	1224.713623	42.920540
845.353760	950.596497	1502.559570	1204.601196	46.018421
845.658752	992.742188	1528.547607	1239.402344	46.035397
845.963745	1004.380371	1494.762939	1226.747314	45.345604
846.268555	970.822083	1434.651611	1183.358765	45.822155
846.573486	970.256958	1433.860596	1168.895996	42.846737
846.878296	1000.764832	1449.340576	1219.854858	48.841255
847.183044	976.584656	1402.787964	1178.500000	47.375359
847.487732	959.296875	1422.109375	1170.703735	45.678726
847.792419	953.308411	1420.075562	1163.585327	45.049641
848.097046	974.550659	1403.353027	1161.890381	43.689060
848.401611	961.669739	1392.166870	1146.636475	42.965847
848.706055	962.121704	1379.737793	1162.794312	48.051933
849.010559	944.946899	1355.331543	1143.472778	48.375561
849.314941	972.855774	1384.596436	1174.432373	48.957176
849.619324	942.122192	1362.450073	1142.907837	47.768814
849.923584	952.178406	1341.659546	1118.162720	42.616779
850.227844	958.844910	1336.801025	1122.682373	43.348278
850.532043	944.720886	1349.117065	1121.665405	43.755241
850.836243	955.116333	1348.665039	1113.191162	40.166523
851.140320	966.415222	1356.913330	1125.168213	40.653973
851.444397	962.008606	1355.783569	1129.574951	42.553833
851.748352	971.273926	1341.094727	1139.179199	45.401794
852.052307	965.059448	1358.834473	1132.286499	42.467663
852.356140	957.601868	1339.851807	1124.942139	43.777710
852.660095	971.838867	1343.693481	1136.467407	44.272285
852.963806	982.686035	1360.642334	1156.692871	46.038876
853.267578	1032.063232	1400.641113	1212.849365	49.049641
853.571228	989.804565	1334.992920	1152.964111	47.266815
853.874939	949.466614	1327.761841	1127.315063	47.013138
854.178467	951.613586	1321.999268	1148.331543	53.111652
854.482056	963.816406	1335.784180	1125.168091	43.377865
854.785461	968.562317	1344.597412	1139.631104	45.492771
855.088989	963.138550	1329.343506	1135.337158	47.022469
855.392273	971.386902	1322.338135	1114.546875	40.791985
855.695679	951.274414	1326.744873	1119.518555	44.808887
855.998901	997.826782	1352.507080	1145.619751	41.669350
856.302185	967.884155	1305.728271	1112.965088	42.943157
856.605286	958.957886	1320.982178	1123.812256	45.536827
856.908508	958.844849	1314.993896	1094.095459	37.975845
857.211548	961.330688	1307.310303	1106.976563	42.096664
857.514587	952.630371	1299.174927	1093.869629	40.756451
857.817566	952.517395	1297.931885	1105.846680	44.389938
858.120483	966.415344	1307.310181	1131.495728	48.425606
858.423340	976.471558	1321.999268	1132.060669	45.029415
858.726196	964.155579	1304.711548	1119.744507	45.686741
859.028931	976.358521	1345.614258	1135.789307	43.176250
859.331665	950.596497	1284.712036	1100.084106	44.741291
859.634277	970.031067	1319.287231	1114.773071	41.442936
859.936890	970.934753	1300.304932	1111.722290	42.744469
860.239441	968.562195	1303.807495	1114.772827	43.613029
860.541992	958.279907	1312.168701	1128.896851	48.212021
860.844421	959.296753	1283.695068	1109.462402	46.290516
861.146912	951.726379	1290.587646	1114.885986	48.149384
861.449219	947.206726	1269.345215	1087.993896	43.703926
861.751526	984.719910	1278.497314	1110.592407	42.846214
862.053772	1002.685547	1309.683105	1123.360107	39.307987
862.355957	975.115601	1306.406372	1116.919678	42.803509
862.658081	962.912476	1301.208618	1113.530029	44.522396
862.960266	946.528931	1276.124756	1095.225464	45.114811
863.262207	949.692566	1287.084839	1103.586670	45.612812
863.564331	966.076294	1285.615845	1117.597656	47.418655
863.866211	967.319153	1280.079346	1099.971191	42.413338
864.168091	949.918579	1274.203857	1104.603760	47.700340
864.469910	944.833862	1260.870728	1087.203247	45.048347
864.771729	957.827820	1266.859375	1087.768066	42.047565
865.073425	946.754761	1289.796753	1095.903564	43.478294
865.375122	958.505859	1273.525879	1084.604248	40.028690
865.676819	935.568665	1276.576660	1087.768066	44.632210
865.978333	955.229187	1264.712402	1085.508179	42.095657
866.279907	991.499329	1319.174438	1120.535645	39.379345
866.581360	967.093140	1285.954834	1103.021973	42.629402
866.882874	940.314148	1293.073364	1095.225342	43.914146
867.184143	951.048523	1258.610962	1094.095581	46.509926
867.485535	945.963745	1275.107666	1103.699707	47.923096
867.786743	981.669128	1302.903564	1146.071533	51.178326
868.088013	995.002075	1312.733887	1120.648438	39.544785
868.389160	974.324585	1282.452148	1109.575439	43.894436
868.690308	942.122192	1276.576416	1097.937256	46.587860
868.991333	939.636353	1274.768677	1093.756470	45.987839
869.292358	950.370483	1283.921021	1086.637939	40.853615
869.593323	987.883606	1320.191284	1130.026855	42.774590
869.894287	941.557251	1277.706543	1099.406128	46.957970
870.195068	973.194641	1304.259644	1115.676880	43.037540
870.495911	963.816284	1276.576538	1099.067139	43.244259
870.796692	960.313843	1267.198364	1099.858154	45.471275
871.097412	966.076294	1284.033936	1102.004883	42.750534
871.398010	957.827942	1294.429321	1084.943237	37.764343
871.698669	971.499878	1267.198486	1087.428955	39.205147
871.999207	962.912598	1267.085205	1077.598755	37.704300
872.299683	947.093750	1276.463623	1095.112427	44.939957
872.600159	963.025574	1278.949585	1102.231079	44.062969
872.900574	950.031555	1258.158936	1086.412231	44.261135
873.200867	962.008667	1260.870850	1095.790283	44.763649
873.501160	958.279907	1270.701050	1085.508057	40.723286
873.801392	960.200806	1278.949463	1105.846680	45.693016
874.101624	955.794128	1293.186523	1107.880493	45.077000
874.401733	956.810913	1306.632202	1114.208008	44.993572
874.701843	969.353027	1287.649658	1115.902832	46.041897
875.001831	968.223145	1295.559204	1110.705322	43.527798
875.301819	958.053894	1286.293701	1110.027222	46.299480
875.601746	976.019531	1309.005127	1120.874390	43.501839
875.901672	966.302246	1308.440308	1116.693726	43.956371
876.201477	947.771667	1293.638184	1102.795776	44.821949
876.501282	959.183899	1282.791138	1093.982544	41.655014
876.800964	966.754395	1305.389160	1110.479248	42.442440
877.100647	956.698242	1282.791138	1101.327026	44.352020
877.400208	970.256958	1282.113037	1094.321655	39.782677
877.699829	987.092773	1343.693481	1145.506592	44.423306
877.999329	947.884766	1299.852783	1095.451416	41.926155
878.298767	963.364441	1295.220093	1095.564453	39.836601
878.598206	949.918579	1314.767822	1099.406128	40.972416
878.897583	942.912903	1298.723022	1101.439819	44.553795
879.196838	951.048462	1303.468506	1091.383789	39.820473
879.496155	947.658569	1309.909180	1106.863525	43.948845
879.795288	974.550659	1340.190796	1144.715698	46.538940
880.094482	963.590637	1351.263916	1149.687256	48.003468
880.393555	951.839478	1341.659424	1149.348511	50.666733
880.692627	958.505737	1373.297119	1154.997681	47.371269
880.991577	948.675781	1399.511230	1177.031128	50.651596
881.290588	947.206665	1468.661987	1197.934692	48.082359
881.589355	944.268921	1561.427734	1239.515625	47.839664
881.888306	973.759766	1743.683228	1330.360474	46.316383
882.187012	959.183777	1987.179321	1431.148682	45.911179
882.485840	956.245972	2202.879883	1563.913818	48.744690
882.784424	965.737305	2464.906982	1685.492554	48.010258
883.083069	970.257019	2685.579102	1768.654297	46.545036
883.381592	979.974304	2881.393311	1876.899658	47.171368
883.680176	953.986145	3010.542480	1925.373047	47.233662
883.978638	947.658569	3078.901611	1975.767212	48.239857
884.277039	954.664246	3086.585449	1957.349609	47.032009
884.575378	978.166321	3034.609131	1941.982788	46.868137
884.873779	925.625366	2884.557129	1873.058228	48.364773
885.171997	961.330750	2786.480225	1825.940796	47.372013
885.470276	989.013550	2724.335449	1818.822266	47.818718
885.768311	947.884644	2585.920410	1739.728271	48.341045
886.066528	949.014526	2474.059326	1680.068970	47.936588
886.364502	939.523438	2358.695068	1636.680298	49.124210
886.662537	929.354126	2213.952881	1558.151123	48.948902
886.960510	950.144531	2107.515137	1506.740234	48.091396
887.258362	954.551270	1974.637329	1429.792847	46.588379
887.556213	946.867798	1834.302002	1371.150391	47.810032
887.854004	950.822449	1718.711670	1306.293335	46.291950
888.151733	975.680542	1661.876953	1290.700684	45.908161
888.449402	980.765320	1605.042480	1256.464111	44.162884
888.747009	956.698059	1524.027832	1210.702637	44.771946
889.044617	961.104797	1479.509033	1195.900757	45.292061
889.342163	952.404419	1436.459351	1175.675293	46.125111
889.639648	952.743347	1401.093018	1149.235352	43.825615
889.937012	937.263672	1379.059814	1140.309204	45.959099
890.234436	971.500000	1390.697998	1155.110840	43.800507
890.531738	949.014648	1341.885620	1142.003906	49.122810
890.829041	948.788574	1323.241943	1132.060669	48.943905
891.126221	942.800110	1330.699463	1120.422485	45.790840
891.423401	951.952454	1286.519775	1100.875122	44.512020
891.720459	950.596497	1290.474609	1098.954102	43.650238
892.017578	960.087708	1299.287842	1102.343872	41.938709
892.314514	956.020020	1257.593994	1082.570435	41.963306
892.611511	961.895630	1281.548340	1110.705322	46.553551
>>>>>End Processed Spectral Data<<<<<
