Jaz Data File
++++++++++++++++++++++++++++++++++++
Date: Mon Sep 17 14:59:05 2018
User: jaz
Dark Spectrum Present: Yes
Reference Spectrum Present: Yes
Processed Spectrum Present: Yes
Spectrometers: JAZA3098
Integration Time (usec): 232000 (JAZA3098)
Spectra Averaged: 20 (JAZA3098)
Boxcar Smoothing: 0 (JAZA3098)
Correct for Electrical Dark: No (JAZA3098)
Strobe/Lamp Enabled: Yes (JAZA3098)
Correct for Detector Non-linearity: No (JAZA3098)
Correct for Stray Light: No (JAZA3098)
Number of Pixels in Processed Spectrum: 2048
>>>>>Begin Processed Spectral Data<<<<<
W	D	R	S	P
190.313904	0.000000	0.000000	0.000000	0.000000
190.695511	0.000000	0.000000	0.000000	0.000000
191.077087	931.613953	922.574585	924.043579	83.748932
191.458633	937.941528	933.760742	918.393921	467.558167
191.840149	949.692566	965.172241	940.540222	-59.124908
192.221634	959.183777	945.285950	952.065308	51.220016
192.603088	975.228638	984.154968	977.149414	21.518095
192.984528	1000.425598	1008.448059	987.318665	-163.377960
193.365921	995.792969	1019.521179	998.278809	10.476306
193.747284	988.222656	987.544617	982.008118	916.545166
194.128616	988.109558	1000.086731	980.087097	-66.981255
194.509918	992.629272	1016.244507	998.278931	23.923786
194.891190	997.487976	1004.154480	993.081421	-66.099945
195.272446	994.663208	1002.572571	993.646301	-12.856999
195.653656	1029.125610	1043.475464	1025.396729	-25.985504
196.034836	1014.323608	1014.436646	998.165894	-14294.168945
196.416000	979.070435	991.838257	987.883606	69.026428
196.797104	1010.707825	1010.255859	1004.267456	1424.969604
197.178192	1007.431152	1025.509766	977.262512	-166.874741
197.559265	985.623718	1003.137512	969.804993	-90.321526
197.940292	971.161011	990.256470	974.324707	16.567795
198.321304	975.906433	979.409363	964.833618	-316.101563
198.702271	979.748352	985.736816	977.488403	-37.738369
199.083221	983.477051	978.279419	959.974731	452.173615
199.464111	971.951965	967.997192	979.635254	-194.278885
199.844986	977.714478	977.714478	956.020142	0.000000
200.225830	960.991821	986.188782	968.562134	30.044546
200.606659	962.912476	1007.318054	959.635864	-7.378828
200.987427	1012.063843	1080.988525	1017.374390	7.704855
201.368195	960.087708	998.956909	970.369934	26.453403
201.748917	984.832825	993.759277	979.635254	-58.226612
202.129608	964.268372	989.239563	967.319153	12.217203
202.510284	976.019531	998.617859	968.223022	-34.500378
202.890915	953.195190	1000.199829	967.545288	30.529110
203.271515	972.064819	995.341003	973.533875	6.311409
203.652100	970.596008	999.069702	971.725891	3.968164
204.032623	969.692078	979.183289	976.245483	69.047096
204.413147	961.895691	988.109680	947.658691	-54.310696
204.793625	970.708984	1001.216614	970.257019	-1.481483
205.174088	956.811035	986.075806	964.494446	26.254812
205.554504	950.483398	972.403809	965.624329	69.072296
205.934906	949.918457	974.550476	959.183716	37.614697
206.315247	957.375854	973.759766	963.138489	35.172520
206.695587	958.844849	992.629211	957.263000	-4.682190
207.075882	972.742859	986.527710	982.799011	72.950752
207.456146	939.975281	971.725891	952.517395	39.501965
207.836380	965.737427	997.375000	950.822571	-47.142857
208.216599	961.104614	995.679993	956.132996	-14.379072
208.596771	952.291504	966.980164	945.172974	-48.462761
208.976913	973.420715	1000.086731	964.042480	-35.169239
209.357025	1026.300659	1039.746704	1014.549622	-87.394005
209.737106	963.703430	981.443054	946.189819	-98.725945
210.117157	967.319214	987.883606	931.275024	-175.274765
210.497177	971.499817	966.415344	942.122253	577.789795
210.877167	968.336121	984.606934	957.940918	-63.888649
211.257126	967.771301	988.335632	954.664185	-63.737141
211.637070	992.629272	1016.922546	972.290894	-83.720207
212.016968	964.607422	1000.538757	953.195190	-31.761223
212.396835	965.285278	984.606934	963.251587	-10.525452
212.776672	959.409973	976.923645	947.545776	-67.742485
213.156464	962.799500	985.510925	950.483521	-54.228119
213.536255	945.850891	981.104187	964.381348	52.563755
213.916000	962.912598	983.929016	939.975281	-109.139992
214.295700	956.924011	980.426270	951.387512	-23.557306
214.675400	965.172363	979.635254	950.370422	-102.344276
215.055038	945.624878	979.522339	957.941040	36.333584
215.434662	975.002625	982.347046	962.008606	-176.923645
215.814240	992.742310	1020.086121	990.595398	-7.851545
216.193787	960.878723	1002.233582	971.725952	26.229637
216.573334	980.087280	994.437134	961.443726	-129.921570
216.952820	965.963257	995.002075	940.427368	-87.937080
217.332275	953.421204	976.810547	955.907104	10.628348
217.711716	967.771179	1001.216675	965.511353	-6.756744
218.091125	952.404297	988.335632	952.856445	1.258368
218.470505	1018.165344	1050.367798	1003.928406	-44.210728
218.849854	958.166992	996.018921	966.189331	21.194002
219.229156	970.595886	985.397827	983.138062	84.733315
219.608444	959.522827	982.460144	966.641235	31.034180
219.987671	998.391968	1023.023926	1002.572632	16.972521
220.366898	963.364624	1008.109009	975.454712	27.020348
220.746094	990.143433	1010.481934	981.104187	-44.444012
221.125244	981.330200	1009.351868	998.617798	61.693680
221.504364	961.104797	998.165894	976.132507	40.548477
221.883469	944.269043	1004.719360	958.957886	24.299034
222.262512	948.675781	997.261902	967.093384	37.907127
222.641556	954.551147	973.872864	952.969360	-8.186577
223.020554	940.992065	996.019043	942.348145	2.464390
223.399521	958.618774	997.600891	963.477539	12.464087
223.778473	965.850403	982.799133	943.591003	-131.333725
224.157364	953.421265	986.075806	930.258118	-70.933922
224.536240	967.093140	967.545105	966.754272	-74.976364
224.915085	951.387390	984.154968	937.489563	-42.413349
225.293900	971.499817	983.250977	945.172974	-224.036133
225.672684	970.595886	997.148926	967.319214	-12.340103
226.051437	970.369995	1005.962219	968.674988	-4.762297
226.430161	938.506470	990.256470	936.020630	-4.803555
226.808838	944.268921	997.600891	953.421265	17.161083
227.187500	980.765137	1048.786011	994.889160	20.764248
227.566132	962.234680	1010.142883	961.443726	-1.650979
227.944717	969.240112	1019.521301	976.471680	14.382252
228.323288	978.731262	1031.837280	980.991333	4.255772
228.701813	951.839478	1022.458984	982.121216	42.880135
229.080307	953.986206	1021.894165	961.556763	11.148261
229.458786	972.855835	1043.814331	972.064819	-1.114758
229.837234	957.489075	1041.893555	981.443054	28.379986
230.215637	945.285950	1037.938721	974.098633	31.097486
230.594009	949.692566	1062.344849	991.047485	36.710236
230.972351	942.009155	1049.915894	982.573059	37.591633
231.350662	969.014038	1039.972778	995.228027	36.942581
231.728958	938.054504	1049.125000	989.013550	45.879913
232.107193	966.641235	1053.644775	984.042114	20.000196
232.485413	952.065308	1036.469971	960.426636	9.906240
232.863602	1060.424072	1156.127808	1090.253906	31.168934
233.241760	957.828003	1050.706787	989.465454	34.063164
233.619873	942.913208	1041.667603	957.488953	14.759591
233.997986	988.674683	1057.260376	1000.877563	17.792166
234.376038	968.223267	1055.113525	991.951294	27.308041
234.754074	966.641235	1070.254517	975.228638	8.287936
235.132065	958.844849	1044.605225	969.804993	12.779963
235.510025	969.579102	1050.819824	988.787720	23.644075
235.887970	963.364563	1051.610962	976.245483	14.596539
236.265869	971.499817	1051.045898	983.928894	15.625003
236.643738	967.093262	1058.842285	987.431763	22.167540
237.021576	950.483582	1064.491821	973.646667	20.317028
237.399384	941.896118	1054.322510	970.030945	25.025108
237.777161	969.918091	1086.637939	1002.459595	27.880009
238.154892	954.890259	1066.525635	983.590027	25.708488
238.532623	956.923950	1080.875610	981.895020	20.145813
238.910309	940.879211	1060.989136	985.397766	37.064842
239.287949	951.839355	1070.141479	967.206238	12.989524
239.665573	947.319702	1071.384277	977.601379	24.407997
240.043167	960.313660	1081.101563	992.290222	26.473316
240.420715	955.003113	1090.705811	992.629272	27.726906
240.798233	965.172363	1088.671875	1001.668579	29.551708
241.175735	966.528320	1097.033447	981.217163	11.255376
241.553207	944.381958	1097.937256	998.165894	35.025776
241.930634	944.720825	1092.513672	983.250977	26.070375
242.308014	963.364563	1141.777832	999.521790	20.265997
242.685394	951.726379	1151.269165	972.516724	10.418991
243.062729	969.014160	1189.234375	1018.391479	22.421793
243.440033	970.031067	1200.985596	1015.114563	19.520508
243.817307	977.036499	1228.894287	1044.718262	26.873007
244.194534	971.161011	1214.318359	1034.888062	26.208153
244.571747	982.346985	1238.046509	1042.910400	23.685385
244.948929	960.652710	1230.137085	1035.227051	27.672974
245.326065	965.172485	1192.398071	1023.249878	25.559355
245.703186	979.974426	1227.312256	1032.741333	21.333941
246.080261	950.370605	1193.075928	1022.232910	29.608871
246.457306	947.319702	1208.216797	1021.329102	28.367275
246.834320	969.466125	1234.543701	1030.933472	23.188437
247.211304	968.901184	1268.780151	1038.051880	23.059536
247.588257	972.064758	1307.197388	1055.226563	24.814594
247.965195	971.612976	1356.235596	1066.751709	24.735605
248.342087	945.850891	1386.743164	1069.011475	27.934393
248.718933	950.935547	1401.771240	1064.604736	25.212997
249.095764	939.297241	1419.171631	1071.497314	27.548891
249.472549	955.794067	1411.262451	1072.288208	25.576778
249.849319	951.839478	1370.020508	1059.746094	25.803804
250.226044	970.144043	1356.009521	1048.786011	20.380669
250.602737	954.212219	1328.439697	1043.927368	23.973427
250.979401	965.285339	1295.785034	1045.622314	24.307730
251.356033	979.409302	1306.519287	1050.706787	21.796181
251.732635	971.612976	1286.180908	1035.905029	20.438210
252.109207	967.658203	1280.757202	1032.289307	20.642385
252.485748	971.048035	1292.960327	1046.413330	23.411749
252.862244	949.127625	1293.751343	1012.854797	18.491814
253.238724	962.347534	1301.660767	1030.368408	20.046631
253.615158	942.800110	1297.932129	1033.532104	25.548807
253.991577	962.573608	1315.897705	1029.351440	18.899881
254.367950	955.455078	1317.705566	1027.317627	19.837807
254.744308	986.979797	1334.880127	1079.406616	26.567039
255.120621	956.359009	1302.338623	1009.803894	15.447409
255.496902	958.505981	1272.395874	1015.453491	18.142511
255.873154	953.195190	1272.734863	1006.753235	16.761000
256.249390	946.867859	1259.514893	1011.724792	20.744459
256.625549	956.697937	1287.762695	1012.063843	16.723587
257.001709	992.403198	1324.598022	1067.090576	22.483006
257.377838	957.149902	1332.959229	1042.910400	22.820215
257.753937	955.568176	1321.095337	1050.480957	25.966000
258.129974	949.353699	1330.134399	1031.611450	21.602396
258.506012	941.895996	1374.766113	1035.000977	21.508757
258.881989	968.223145	1401.657959	1057.147461	20.516191
259.257935	962.799622	1420.527588	1048.446899	18.711393
259.633911	948.788696	1483.237915	1056.469482	20.147991
260.009766	960.087708	1530.016357	1064.830811	18.378283
260.385651	1006.188293	1620.296265	1112.965088	17.387300
260.761475	950.144409	1634.759521	1088.784912	20.250868
261.137299	962.121582	1704.135986	1105.394653	19.308664
261.513062	939.862305	1729.333008	1093.191650	19.421791
261.888763	995.454102	1758.823975	1127.201904	17.258711
262.264496	957.941040	1707.186768	1084.491211	16.890343
262.640137	962.912476	1668.091797	1086.977051	17.593338
263.015808	950.596558	1592.500488	1044.492310	14.627695
263.391388	988.335632	1595.438232	1085.395142	15.987332
263.766998	993.307251	1572.161987	1102.795898	18.914701
264.142517	977.940430	1549.789917	1091.383545	19.837933
264.518036	954.890137	1505.610229	1044.266357	16.228973
264.893524	971.612915	1499.169678	1055.000488	15.806370
265.268951	983.815918	1536.004883	1067.994507	15.244526
265.644379	947.093628	1469.566040	1017.939331	13.559702
266.019745	958.957886	1465.837280	1053.757568	18.702612
266.395111	971.047852	1485.158813	1025.848755	10.659353
266.770386	977.714355	1519.734131	1059.068359	15.009417
267.145691	963.816589	1529.790161	1054.548584	16.031136
267.520966	970.369995	1560.975830	1061.215088	15.381679
267.896149	978.505371	1593.404541	1079.632568	16.446142
268.271362	969.917969	1588.432861	1063.022827	15.052970
268.646515	943.139038	1600.974854	1042.119507	15.046379
269.021606	974.889771	1641.313110	1081.214600	15.954548
269.396729	959.296875	1639.730835	1042.006470	12.155418
269.771790	940.088196	1627.188965	1069.011597	18.763391
270.146790	941.218262	1647.188477	1061.441040	17.029440
270.521790	962.799622	1651.369141	1078.050659	16.737749
270.896759	965.624390	1659.730225	1082.683350	16.864714
271.271667	974.776550	1703.457764	1072.288208	13.381937
271.646545	948.449585	1716.225952	1066.073608	15.320089
272.021423	952.178528	1781.422119	1066.299683	13.762078
272.396271	940.653198	1819.726196	1089.349976	16.915180
272.771027	959.974792	1864.244751	1103.925659	15.919015
273.145813	963.025757	1906.390625	1102.230957	14.756242
273.520538	980.539185	1935.881226	1125.846069	15.209933
273.895233	978.279175	1930.683838	1132.964600	16.241566
274.269897	959.296875	1881.080322	1120.987549	17.541069
274.644501	966.302368	1844.810181	1100.649170	15.292613
275.019135	987.657593	1842.324219	1107.993408	14.079854
275.393677	949.692383	1814.867554	1088.897827	16.089857
275.768250	948.110535	1814.076416	1062.458008	13.204617
276.142700	932.630859	1816.336304	1083.361328	17.056641
276.517212	955.907043	1854.640625	1083.474365	14.194119
276.891632	962.686523	1859.273193	1109.801392	16.408327
277.266022	954.099304	1873.623047	1097.711304	15.618085
277.640381	954.890137	1922.548218	1090.931641	14.058840
278.014740	981.443176	1929.779541	1106.976685	13.237234
278.389038	955.794128	1957.349609	1116.241821	16.019850
278.763336	954.890259	1966.727905	1110.479248	15.376873
279.137543	944.608032	1958.140625	1103.812744	15.707903
279.511780	949.918579	1956.219482	1104.716675	15.382883
279.885925	954.325195	1977.236328	1119.631470	16.160376
280.260101	956.020020	1952.491455	1104.377808	14.888313
280.634186	966.415161	1990.230469	1112.287231	14.247890
281.008301	985.171875	2048.533691	1132.738647	13.877381
281.382294	956.132935	2043.901001	1109.010498	14.054243
281.756348	970.144043	2131.017334	1123.699219	13.227557
282.130280	943.591125	2177.682861	1143.359863	16.187510
282.504272	971.386902	2266.381348	1158.274536	14.431540
282.878143	955.681152	2271.013916	1153.867920	15.067424
283.252014	970.708862	2323.780762	1175.901367	15.164937
283.625854	1001.555542	2400.162598	1220.081055	15.624511
283.999664	968.675171	2376.095947	1166.749146	14.073544
284.373444	962.121460	2407.733643	1162.455322	13.858064
284.747192	963.929565	2369.429199	1179.064941	15.306684
285.120941	983.476929	2396.885986	1214.318604	16.332262
285.494629	936.472534	2404.569580	1161.664429	15.339033
285.868256	956.811035	2435.642334	1174.206421	14.700486
286.241882	982.234070	2489.990967	1185.392578	13.474222
286.615448	966.867188	2542.645020	1224.939575	16.377460
286.988983	938.958374	2560.158691	1186.409668	15.263462
287.362518	985.171997	2609.875000	1210.363647	13.860481
287.736023	962.686646	2639.930664	1202.454346	14.295338
288.109467	959.070923	2646.145020	1193.075928	13.870464
288.482880	973.985718	2634.394043	1220.758789	14.862192
288.856262	979.748230	2638.461426	1233.979004	15.326988
289.229584	976.923340	2594.508301	1198.951416	13.725899
289.602936	966.302429	2591.457275	1184.036865	13.397766
289.976227	991.612183	2607.163086	1195.335938	12.610172
290.349457	958.618958	2641.625488	1185.844482	13.501166
290.722687	958.279968	2656.427490	1202.680176	14.392166
291.095886	949.579590	2738.120117	1203.697388	14.208110
291.469025	979.635132	2819.812744	1218.837891	12.998896
291.842133	954.438171	2826.140381	1219.854858	14.180498
292.215240	969.805054	2885.460693	1243.018188	14.262121
292.588287	952.743286	2847.043457	1220.871948	14.154497
292.961304	944.608032	2851.111572	1200.872314	13.441585
293.334320	964.607544	2858.003662	1234.430786	14.250755
293.707245	955.455078	2837.100586	1219.628906	14.039511
294.080170	968.110168	2845.235840	1228.894287	13.892735
294.453064	940.540344	2910.318848	1239.402466	15.172372
294.825897	965.963257	2972.690186	1230.137085	13.164413
295.198730	935.229675	3035.513428	1260.870850	15.504628
295.571533	950.596375	3084.099854	1257.255127	14.373483
295.944275	957.150024	3153.476318	1279.853271	14.692865
296.317017	985.171753	3263.416992	1307.762207	14.159602
296.689697	965.285339	3318.444092	1293.638428	13.953716
297.062317	957.827942	3324.093262	1291.039551	14.081752
297.434967	977.375488	3395.843262	1318.948242	14.123519
297.807526	958.279785	3477.196533	1332.959351	14.874631
298.180115	946.189819	3553.014160	1327.309814	14.620088
298.552612	969.805054	3544.087402	1334.089233	14.150903
298.925110	951.952332	3584.990234	1341.207642	14.783506
299.297546	987.205566	3542.393066	1343.806396	13.955956
299.669983	953.421265	3482.281738	1330.360474	14.905498
300.042358	981.217163	3408.949951	1357.817383	15.512424
300.414734	960.991699	3351.211426	1320.530396	15.042077
300.787048	943.139038	3292.794434	1312.620850	15.724937
301.159332	954.776978	3256.863770	1299.739990	14.984796
301.531616	935.455750	3216.525879	1307.536377	16.311670
301.903809	964.268372	3213.474609	1306.067383	15.196427
302.276031	961.556641	3203.757568	1292.734375	14.770207
302.648163	948.675659	3195.961426	1288.666748	15.128966
303.020294	941.218140	3193.475098	1300.417847	15.948435
303.392395	958.618835	3203.418701	1321.885986	16.182608
303.764435	947.658691	3132.233887	1282.339111	15.320160
304.136444	948.336548	3137.092773	1282.904175	15.285741
304.508453	962.121704	3169.859863	1303.129517	15.446025
304.880371	995.228149	3147.035645	1300.078857	14.167192
305.252319	970.257019	3102.856445	1280.305420	14.538521
305.624207	987.431641	3121.161133	1306.971313	14.975641
305.996033	990.595398	3127.488525	1298.384033	14.403558
306.367859	960.878723	3114.494629	1276.802612	14.669462
306.739655	948.901672	3090.539795	1270.249023	15.004745
307.111389	949.240601	3152.572021	1307.649292	16.266670
307.483124	965.172363	3168.504395	1284.824951	14.507690
307.854828	972.177734	3201.271729	1314.428711	15.353815
308.226471	952.291321	3211.327637	1298.723145	15.335381
308.598083	964.833496	3287.145264	1284.260010	13.754679
308.969666	968.788208	3297.766357	1325.953857	15.335724
309.341187	975.115723	3373.583496	1327.987549	14.712385
309.712738	960.426636	3454.485596	1335.106201	15.022882
310.084167	963.364563	3470.869141	1354.992676	15.618240
310.455658	949.692383	3522.393311	1362.337280	16.039366
310.827057	970.257019	3602.842529	1379.398682	15.541439
311.198456	971.951782	3592.673828	1360.077271	14.809868
311.569794	960.991699	3566.233887	1346.066162	14.780755
311.941132	958.166870	3599.566406	1363.919067	15.361259
312.312408	948.336548	3599.792236	1337.252808	14.668029
312.683655	962.234558	3590.865967	1360.077393	15.134980
313.054840	969.805054	3567.250732	1356.122437	14.872972
313.426056	969.127136	3574.595215	1353.297729	14.744782
313.797180	986.075867	3601.374268	1373.636230	14.818974
314.168304	967.206177	3578.210938	1349.795166	14.652941
314.539368	930.709961	3542.618652	1331.716309	15.353001
314.910431	943.477905	3573.126465	1343.128418	15.197868
315.281433	951.274536	3629.283203	1354.653809	15.062656
315.652435	958.392761	3729.732422	1371.941406	14.922338
316.023346	959.748840	3740.805908	1358.382324	14.333883
316.394287	949.805481	3747.132813	1356.348389	14.533261
316.765137	976.019531	3750.071045	1358.269287	13.779476
317.135986	980.539246	3708.489746	1360.077271	13.912937
317.506775	959.522949	3634.593262	1335.557861	14.057011
317.877594	990.821472	3617.871094	1364.484009	14.223658
318.248291	973.759766	3555.499512	1341.433716	14.241325
318.619019	988.900513	3542.166748	1346.179321	13.993011
318.989655	977.488403	3600.244629	1357.026611	14.470967
319.360321	966.302368	3605.441895	1341.433716	14.214153
319.730896	965.172485	3634.367676	1354.766479	14.595934
320.101501	949.127625	3658.209473	1331.038208	14.097418
320.472015	955.455200	3685.213623	1342.337646	14.172773
320.842529	965.963379	3713.349121	1350.811890	14.007808
321.213013	969.917847	3683.744629	1350.698975	14.031152
321.583466	950.031616	3671.089844	1345.727417	14.541983
321.953827	938.393372	3633.915527	1330.247559	14.537227
322.324188	963.590515	3670.412109	1330.021606	13.537320
322.694519	946.302856	3691.428467	1318.722412	13.566577
323.064819	951.274414	3738.094238	1341.207764	13.992055
323.435059	972.855774	3831.312012	1380.754761	14.269904
323.805328	944.382019	3935.151123	1368.890625	14.193961
324.175507	970.369995	4039.780762	1394.200562	13.808207
324.545685	941.557251	4112.772949	1414.087280	14.900595
324.915802	949.466614	4261.356445	1403.127197	13.697937
325.285919	945.963989	4361.241211	1430.470947	14.186460
325.655975	950.822571	4397.624023	1420.301514	13.620713
326.025970	958.844727	4385.082031	1438.493286	13.999280
326.395966	953.082336	4352.993164	1426.064209	13.911596
326.765930	937.376587	4366.212891	1426.742310	14.272064
327.135864	960.087708	4349.942383	1430.809692	13.886199
327.505737	967.206360	4338.304199	1427.984863	13.668500
327.875580	958.279968	4238.758789	1419.849487	14.070188
328.245422	1018.504272	4227.458984	1476.345459	14.267612
328.615204	973.420776	4126.445313	1435.103516	14.642536
328.984955	963.364563	4062.492188	1403.804932	14.211753
329.354675	970.595886	4073.451904	1414.765015	14.314849
329.724365	961.217773	4022.266846	1391.827759	14.067399
330.093994	964.607544	4082.152832	1395.217529	13.812469
330.463623	965.624390	4103.733887	1427.194092	14.708529
330.833191	971.612915	4150.172852	1407.759644	13.721519
331.202759	949.805542	4217.403320	1409.115479	14.056502
331.572266	947.545715	4232.431152	1432.956787	14.777108
331.941711	944.156067	4291.751465	1447.080566	15.023455
332.311188	961.217651	4372.426758	1458.605713	14.580991
332.680573	959.635864	4416.041992	1454.086182	14.305330
333.049988	951.387512	4505.079590	1473.972412	14.705407
333.419312	981.217163	4595.923828	1485.271729	13.944551
333.788635	964.607422	4692.758301	1491.825195	14.141536
334.157867	954.325317	4821.229004	1525.722534	14.776608
334.527130	952.404419	4909.702148	1537.247681	14.778853
334.896332	993.646179	4962.242676	1558.716064	14.238532
335.265503	948.449585	4981.903320	1556.908447	15.085307
335.634613	959.522827	5009.699707	1563.009888	14.900265
336.003723	969.126953	4908.120117	1566.851440	15.174550
336.372772	1011.272827	4890.041504	1596.116211	15.078069
336.741821	957.602173	4831.624023	1529.903198	14.772787
337.110809	965.737183	4764.620605	1561.540894	15.683654
337.479797	981.217102	4736.373047	1579.619385	15.935484
337.848724	985.623840	4787.331543	1594.534302	16.016762
338.217590	975.115845	4819.194824	1555.326294	15.093614
338.586487	952.743347	4796.032227	1553.631470	15.634738
338.955292	974.776550	4859.420898	1587.867920	15.782433
339.324036	949.127563	4876.708008	1573.179077	15.888955
339.692841	958.618958	4912.186523	1584.704346	15.835960
340.061523	945.624878	4874.448242	1574.534912	16.007593
340.430237	965.624390	4906.764160	1588.432861	15.802751
340.798859	977.827454	4947.440430	1612.047974	15.976885
341.167511	960.878723	4947.327637	1600.974854	16.056799
341.536072	964.268433	4905.747070	1591.483398	15.913190
341.904663	951.048462	4958.513672	1610.805054	16.463188
342.273102	970.369934	4981.111816	1639.165771	16.675116
342.641632	993.081360	5023.370605	1669.447876	16.782084
343.010040	940.653198	5082.239258	1639.956787	16.884922
343.378510	965.850403	5152.293945	1680.633789	17.073763
343.746826	939.071411	5208.676758	1675.775146	17.254610
344.115204	967.997253	5281.217773	1699.955444	16.970108
344.483490	942.461060	5373.643555	1723.344482	17.622461
344.851776	964.720398	5493.979980	1736.225586	17.033804
345.220001	972.742798	5643.692871	1786.167725	17.414549
345.588196	961.895630	5663.467285	1792.269287	17.661617
345.956329	959.635925	5800.977051	1810.573975	17.576494
346.324524	954.438171	5824.253418	1809.782837	17.564211
346.692596	957.375977	5827.191895	1835.884033	18.039862
347.060669	1006.301147	5884.026367	1876.560791	17.841507
347.428680	963.251648	5768.774902	1825.262451	17.937918
347.796692	936.020508	5702.222168	1834.415283	18.849281
348.164612	960.652710	5647.421875	1812.946655	18.185106
348.532562	977.827515	5655.218262	1848.651978	18.617741
348.900421	996.810059	5597.141113	1869.781250	18.976269
349.268311	960.652832	5515.673828	1837.013916	19.239452
349.636108	985.397766	5632.506836	1855.092529	18.714748
350.003906	951.161438	5602.676758	1844.923218	19.214422
350.371643	968.787964	5657.591309	1852.154907	18.839924
350.739380	990.030579	5750.131836	1934.864502	19.849031
351.107025	952.630371	5829.451172	1891.588867	19.253496
351.474701	943.139038	5817.248047	1911.588257	19.869257
351.842285	953.534363	5887.641602	1936.446289	19.920765
352.209900	941.105164	5923.347168	1957.123657	20.392796
352.577393	966.076355	5957.244629	1969.213623	20.098246
352.944946	945.624817	5905.381348	1958.366455	20.419182
353.312378	965.511353	6058.258301	2002.094116	20.354099
353.679840	939.862305	6175.657227	2014.297241	20.520952
354.047211	962.686523	6382.317871	2060.623779	20.258522
354.414612	934.664673	6403.786133	2068.081299	20.723925
354.781891	931.613892	6626.493164	2132.825195	21.092831
355.149231	961.217773	6723.439941	2160.508301	20.812986
355.516449	959.183777	6841.627441	2189.208252	20.910091
355.883698	939.975281	6977.670410	2207.625732	20.995600
356.250854	966.641235	7146.140625	2276.098877	21.190351
356.618011	956.811035	7318.338867	2338.921631	21.726080
356.985168	940.540344	7436.980469	2329.430420	21.379250
357.352234	980.200317	7644.092773	2411.009766	21.471077
357.719269	948.788574	7890.301758	2457.110596	21.729010
358.086304	947.997681	8108.713379	2466.489014	21.205860
358.453278	944.946960	8361.701172	2544.000977	21.560022
358.820190	931.500854	8382.942383	2558.463867	21.834206
359.187103	936.585449	8562.373047	2584.226074	21.606171
359.554016	946.980774	8481.698242	2586.033691	21.753344
359.920837	943.478027	8523.730469	2574.508301	21.516832
360.287628	948.901550	8543.503906	2586.033691	21.556520
360.654388	945.963867	8615.706055	2626.145752	21.906628
361.021149	965.511414	8877.167969	2679.025635	21.658094
361.387848	978.279419	9182.920898	2771.113770	21.851465
361.754486	950.144531	9581.216797	2840.716553	21.904255
362.121124	953.421265	9984.595703	2924.669189	21.827148
362.487732	961.217651	10307.750977	3013.141113	21.953844
362.854279	941.105164	10341.196289	3028.282227	22.203796
363.220795	981.104126	10258.260742	3029.977051	22.085140
363.587311	971.499878	10048.662109	3006.135742	22.414890
363.953735	937.263489	9763.359375	2930.996582	22.589073
364.320160	953.873169	9381.334961	2820.942627	22.154589
364.686554	941.783203	8853.779297	2702.075684	22.248400
365.052887	937.715515	8587.910156	2645.015137	22.317074
365.419189	949.466614	8264.529297	2576.655518	22.244362
365.785492	940.427368	8101.255371	2549.537598	22.471008
366.151703	937.941406	8012.443848	2509.651367	22.216545
366.517944	975.454590	7980.920410	2532.023926	22.219355
366.884094	989.917603	7941.711914	2551.119385	22.457537
367.250214	958.618774	7869.059570	2472.251465	21.903563
367.616333	967.206238	7898.889160	2502.984863	22.155926
367.982361	984.832886	7876.177246	2472.816162	21.592062
368.348419	952.291321	7802.732910	2452.929932	21.905722
368.714386	951.952454	7794.484375	2441.405029	21.767567
369.080383	974.437683	7794.032715	2467.280029	21.890482
369.446289	1017.374390	7728.158691	2457.901855	21.465858
369.812195	990.256531	7651.550781	2432.591309	21.652470
370.178009	969.804993	7654.262695	2407.846680	21.513216
370.543854	956.359070	7746.350098	2408.863525	21.391846
370.909607	963.025574	7760.813477	2408.072021	21.257597
371.275360	953.647339	7794.936523	2415.643066	21.370178
371.641052	965.398315	7935.045410	2445.020752	21.229517
372.006744	963.251465	8000.242188	2421.969971	20.729294
372.372375	974.550598	8139.447754	2442.421631	20.486980
372.737976	964.268372	8120.689941	2449.088135	20.748077
373.103546	974.663574	8073.686035	2453.720947	20.834663
373.469055	956.811035	8147.921875	2446.941895	20.721846
373.834595	968.788208	8236.394531	2434.738281	20.171017
374.199982	972.177856	8187.693848	2404.795654	19.854683
374.565460	963.364441	8194.248047	2427.620361	20.250027
374.930817	933.082825	8363.396484	2447.393311	20.380171
375.296204	964.494507	8468.251953	2457.110352	19.891579
375.661499	944.156067	8549.945313	2478.579102	20.174410
376.026825	982.686035	8762.369141	2522.758789	19.796085
376.391998	947.206726	8890.500000	2510.555420	19.681366
376.757263	964.946289	9163.037109	2574.169434	19.629242
377.122406	939.523438	9378.396484	2556.769043	19.164236
377.487549	942.687134	9549.013672	2591.796387	19.161594
377.852631	945.511841	9806.183594	2625.467529	18.959688
378.217743	979.974304	10029.906250	2661.173096	18.576921
378.582764	960.200684	10016.685547	2671.003418	18.890362
378.947754	963.364441	9997.025391	2625.806396	18.402748
379.312714	964.268372	9804.713867	2609.648926	18.611965
379.677673	935.342590	9583.138672	2520.498535	18.330173
380.042542	962.799622	9340.431641	2500.612061	18.356173
380.407379	958.505981	9166.876953	2432.252441	17.954189
380.772186	957.036987	9118.517578	2406.490479	17.759687
381.136993	935.568665	9061.229492	2396.434082	17.978420
381.501740	937.602356	9035.695313	2392.705322	17.968466
381.866486	966.302368	9070.607422	2375.982910	17.394218
382.231110	961.330688	9082.472656	2368.073486	17.321981
382.595764	958.279785	9052.193359	2326.605469	16.905613
382.960327	942.009094	9033.887695	2330.673096	17.161207
383.324951	943.930054	9120.326172	2314.967529	16.768238
383.689453	953.873169	9220.096680	2334.514893	16.702206
384.053986	959.635864	9452.970703	2357.791260	16.461796
384.418396	956.471985	9526.642578	2347.734863	16.233784
384.782867	960.652710	9679.632813	2360.616211	16.056505
385.147217	976.358521	9861.548828	2388.638184	15.894759
385.511597	967.658081	9930.247070	2387.507813	15.841960
385.875885	948.449585	9981.884766	2358.130127	15.605144
386.240204	960.426758	9989.793945	2371.011230	15.622186
386.604401	955.907104	10013.974609	2357.113281	15.469151
386.968628	979.409363	10186.736328	2403.552979	15.467503
387.332764	942.799988	10237.922852	2341.746582	15.050328
387.696930	960.652649	10404.247070	2383.101563	15.062579
388.061005	992.968384	10416.336914	2435.867920	15.311930
388.425140	964.833374	10553.845703	2387.055908	14.831793
388.789124	964.720398	10582.208984	2388.185791	14.800801
389.153168	972.516907	10610.003906	2369.993896	14.500429
389.517090	941.783203	10624.580078	2346.831299	14.510767
389.881042	952.969360	10591.021484	2326.153564	14.247529
390.244873	945.398926	10596.558594	2312.029785	14.160275
390.608734	979.409180	10760.394531	2355.983154	14.073980
390.972534	948.449585	10857.002930	2327.848389	13.921293
391.336304	946.415833	10981.517578	2321.407959	13.701826
391.700043	955.003113	11125.471680	2327.396240	13.493902
392.063751	946.980774	11410.320313	2360.390137	13.508205
392.427399	929.128235	11550.544922	2374.062012	13.603965
392.791077	993.194214	11776.865234	2426.828613	13.294494
393.154663	961.556763	11674.382813	2362.536621	13.077594
393.518219	955.229126	11599.694336	2337.339355	12.984309
393.881744	955.003113	11488.625000	2345.814209	13.203540
394.245209	946.980835	11537.662109	2298.131592	12.757920
394.608704	930.484009	11510.996094	2293.272949	12.880179
394.972107	953.308411	11532.124023	2295.307129	12.685719
395.335480	964.494446	11603.197266	2311.577637	12.662100
395.698792	969.127075	11561.390625	2283.668701	12.410394
396.062103	1015.001587	11420.716797	2288.640137	12.239799
396.425385	960.087891	11170.554688	2222.653564	12.365406
396.788635	965.850403	11051.010742	2201.411133	12.251276
397.151825	957.601929	10920.166016	2148.983154	11.958580
397.514984	959.748840	10688.872070	2145.141113	12.183959
397.878113	977.714355	10623.789063	2121.413330	11.856627
398.241180	954.551147	10523.677734	2113.955566	12.116094
398.604248	965.850403	10495.318359	2066.951416	11.554696
398.967285	981.217163	10598.590820	2097.684814	11.608862
399.330231	984.493835	10529.101563	2094.634277	11.631074
399.693176	961.782593	10407.749023	2053.731689	11.559951
400.056091	961.556641	10480.967773	2079.380371	11.742572
400.418976	956.359070	10405.714844	2021.528687	11.272406
400.781830	970.257019	10403.794922	2043.110596	11.372759
401.144592	960.991821	10359.840820	2009.664673	11.157461
401.507355	992.064453	10444.358398	2063.335693	11.333452
401.870087	974.324585	10379.049805	2018.929932	11.107239
402.232758	968.788269	10570.908203	2017.009399	10.916560
402.595428	986.753723	10649.211914	2051.810303	11.022626
402.958038	964.946411	10855.194336	2055.313232	11.024666
403.320618	950.709595	10962.990234	2040.850342	10.888037
403.683167	953.760254	11101.291016	2056.556152	10.867627
404.045654	975.115601	11264.787109	2082.995850	10.766915
404.408142	951.048462	11323.205078	2060.397949	10.695457
404.770569	945.624878	11425.688477	2061.979736	10.652177
405.132996	977.036438	11731.103516	2138.361816	10.798942
405.495331	951.274414	11877.879883	2113.277832	10.634624
405.857666	977.601379	12057.874023	2165.027832	10.716582
406.219940	955.003113	12105.444336	2120.509277	10.452556
406.582214	955.907104	12017.423828	2098.475830	10.329223
406.944427	941.783081	11941.720703	2093.843262	10.473334
407.306549	935.455566	11833.587891	2082.883057	10.528662
407.668732	951.274414	11750.200195	2068.307617	10.343929
408.030792	944.833801	11653.705078	2065.030518	10.460456
408.392914	964.946411	11741.160156	2035.200806	9.931637
408.754883	964.381531	11624.439453	2010.229736	9.810905
409.116943	957.602051	11926.805664	2053.731445	9.992789
409.478882	954.099243	11861.720703	2043.901001	9.991196
409.840820	996.583984	12025.108398	2080.171387	9.825316
410.202667	952.517273	12220.922852	2055.539063	9.788623
410.564575	978.957397	12296.400391	2085.482178	9.777163
410.926331	960.652710	12295.721680	2062.205566	9.718096
411.288147	967.884155	12144.766602	2043.675171	9.625144
411.649872	944.494995	12276.626953	2047.064819	9.729589
412.011566	958.957886	12157.308594	2016.218384	9.441216
412.373199	967.206360	12063.185547	2008.083008	9.380666
412.734894	974.437622	11890.083984	2015.427368	9.536675
413.096436	955.003113	11871.327148	1984.580811	9.431541
413.458008	949.579590	11878.331055	1998.591431	9.598642
413.819519	955.568054	11970.533203	1990.004517	9.391192
414.181030	938.732422	11968.159180	1984.467407	9.481318
414.542450	949.805664	12072.114258	2020.964111	9.630720
414.903870	962.121460	12152.221680	1998.930420	9.265412
415.265198	954.438171	12322.953125	2019.156006	9.365496
415.626587	955.907227	12295.269531	1997.461548	9.185299
415.987854	955.906921	12499.898438	2011.246704	9.141897
416.349152	961.330688	12650.288086	2034.522705	9.181247
416.710327	946.076843	12802.714844	2034.522705	9.180055
417.071533	953.308289	12778.421875	2046.160889	9.241794
417.432678	952.856323	13206.206055	2078.137207	9.183455
417.793823	936.585449	13381.455078	2068.420166	9.094790
418.154877	928.224243	13612.974609	2088.645508	9.148160
418.515930	936.359558	14085.393555	2121.978271	9.016773
418.876923	958.392944	14456.908203	2171.354980	8.985892
419.237915	973.307739	14723.793945	2204.913818	8.956819
419.598816	962.799500	15106.947266	2217.907715	8.873693
419.959717	952.291504	15605.916992	2228.189941	8.707050
420.320526	943.365051	16305.673828	2295.984619	8.804794
420.681396	976.132690	16572.109375	2357.791016	8.859069
421.042145	959.635742	17083.390625	2362.875732	8.702935
421.402924	958.166870	17529.595703	2367.282715	8.503284
421.763580	956.698120	17836.820313	2434.851563	8.756769
422.124298	951.839478	18280.082031	2455.528809	8.677680
422.484894	971.273926	18452.962891	2494.397461	8.712679
422.845520	954.890259	18369.009766	2452.025879	8.597252
423.206055	951.952332	18285.169922	2465.359131	8.731252
423.566589	942.122070	18073.083984	2415.981934	8.603486
423.927063	964.720398	18161.216797	2444.455566	8.604864
424.287506	943.365051	17968.230469	2415.077637	8.644489
424.647949	960.878723	18085.287109	2434.738281	8.606777
425.008301	933.195923	18325.394531	2419.258301	8.544419
425.368652	949.579468	18440.984375	2453.155762	8.596087
425.728943	953.534302	18157.261719	2409.541016	8.463322
426.089203	945.398926	18535.222656	2418.919434	8.377119
426.449432	953.195313	18349.347656	2437.675781	8.533384
426.809601	964.720520	18347.652344	2410.219238	8.315621
427.169739	927.094360	18342.566406	2426.489990	8.609560
427.529846	985.849792	18193.646484	2433.495117	8.412728
427.889954	999.408875	18090.144531	2440.274902	8.430684
428.250000	944.156067	17697.730469	2367.395264	8.495138
428.609985	953.195313	17561.121094	2340.390137	8.352608
428.969940	965.850281	17316.154297	2338.921387	8.397832
429.329865	979.635254	17305.871094	2331.802979	8.282177
429.689789	983.477173	17040.570313	2317.114502	8.305596
430.049622	958.957886	17026.332031	2305.702393	8.381858
430.409454	958.618835	16694.025391	2275.194336	8.366961
430.769226	975.228516	16508.605469	2256.889893	8.251016
431.128937	976.471375	16303.865234	2237.567871	8.227729
431.488678	943.703979	16510.638672	2255.985840	8.429931
431.848328	964.607422	16680.691406	2229.771973	8.050126
432.207947	963.251465	16489.169922	2239.263184	8.218591
432.567566	960.765747	16729.730469	2265.251465	8.272488
432.927124	951.161316	16793.230469	2247.511230	8.182958
433.286621	965.059387	17091.980469	2284.233643	8.179952
433.646118	949.692505	17415.019531	2328.413574	8.373482
434.005554	962.912476	17328.810547	2310.560791	8.234490
434.364960	996.132019	17288.810547	2323.667725	8.148050
434.724335	951.613464	17327.566406	2303.103271	8.252892
435.083649	966.302246	17008.140625	2290.900146	8.257146
435.442932	954.099243	16959.667969	2249.319092	8.092308
435.802216	970.596008	17085.089844	2283.781738	8.149097
436.161407	982.686035	16842.044922	2259.714355	8.052206
436.520630	960.313660	16916.730469	2279.940186	8.270193
436.879761	945.059937	17163.617188	2255.873047	8.082181
437.238831	958.731812	17376.492188	2279.601074	8.045368
437.597931	952.743347	17475.363281	2260.053223	7.912243
437.956940	962.573608	17320.449219	2269.770752	7.991240
438.315948	942.461121	17463.158203	2291.804199	8.167591
438.674896	970.483032	17410.839844	2281.634766	7.975202
439.033844	961.104797	17149.492188	2246.494629	7.940197
439.392700	948.449707	17362.257813	2258.810547	7.983284
439.751556	956.020142	17331.408203	2285.589600	8.119316
440.110352	954.664185	18045.513672	2324.458496	8.014782
440.469116	956.020020	18088.113281	2313.046387	7.920960
440.827850	945.624878	18286.751953	2327.170410	7.966873
441.186554	971.951965	18903.683594	2399.146484	7.959044
441.545197	940.201355	19043.566406	2364.570557	7.867980
441.903809	979.409363	19249.662109	2428.636475	7.932168
442.262390	951.613281	19076.675781	2397.112549	7.975141
442.620941	962.347656	18770.128906	2388.637695	8.009364
442.979462	952.517395	18842.105469	2375.756592	7.955685
443.337921	975.906616	18720.070313	2382.536377	7.927281
443.696350	953.760254	18374.771484	2348.638672	8.006874
444.054718	958.279968	18395.337891	2357.339111	8.023481
444.413086	995.906067	18786.851563	2408.750488	7.941368
444.771423	993.194214	19161.531250	2406.829590	7.780763
445.129669	969.466003	18577.251953	2343.667480	7.804511
445.487915	933.534851	17412.423828	2247.737305	7.975067
445.846130	958.844849	17941.449219	2305.137207	7.927479
446.204285	940.314331	17986.761719	2283.895020	7.881881
446.562408	967.884094	18561.431641	2385.473877	8.057442
446.920532	939.862305	19400.283203	2396.659912	7.891464
447.278595	962.008667	19765.355469	2459.935303	7.966276
447.636566	941.896179	20449.181641	2480.612793	7.887907
447.994568	969.353149	20976.623047	2527.617188	7.788489
448.352509	960.087708	21073.230469	2558.237793	7.945800
448.710419	934.099731	20955.609375	2528.521240	7.963543
449.068237	933.986816	20834.027344	2536.317871	8.051898
449.426056	959.409851	20978.771484	2540.836914	7.899488
449.783844	970.482788	20521.609375	2501.967773	7.833231
450.141602	957.263000	20481.382813	2504.680176	7.925670
450.499329	942.912964	20260.597656	2504.001953	8.081139
450.856964	973.759766	19858.574219	2463.212158	7.887037
451.214630	964.946472	19957.779297	2476.657959	7.959379
451.572235	952.856445	19614.289063	2456.545898	8.057738
451.929779	950.483521	19697.449219	2445.246338	7.973359
452.287323	969.240051	19792.812500	2462.873535	7.934910
452.644806	972.629883	19706.035156	2461.178223	7.945957
453.002258	980.652039	19646.376953	2454.060059	7.893655
453.359650	967.545227	19305.480469	2463.437988	8.157368
453.717010	973.985718	19371.472656	2461.969238	8.087972
454.074341	969.014038	18963.003906	2412.592041	8.022556
454.431641	973.533813	18853.628906	2420.727539	8.093882
454.788910	966.980286	18625.160156	2392.253662	8.071463
455.146118	951.839355	18622.673828	2416.885742	8.290760
455.503296	945.624878	18337.933594	2368.864502	8.183155
455.860443	946.302856	18698.041016	2407.959473	8.233879
456.217560	954.212097	18335.113281	2413.834961	8.397855
456.574615	986.866821	18111.160156	2405.586426	8.284836
456.931641	977.375488	18296.693359	2413.156738	8.290056
457.288635	964.381348	18386.521484	2420.953369	8.360465
457.645599	952.517395	18176.583984	2376.886963	8.269648
458.002502	970.596008	18495.105469	2408.411133	8.204596
458.359375	959.522766	18518.269531	2389.315674	8.142910
458.716217	967.771179	19216.894531	2470.669434	8.235455
459.073029	964.042480	19969.304688	2512.476563	8.147397
459.429779	995.002136	20826.796875	2612.247559	8.154811
459.786499	980.652161	21740.218750	2663.771973	8.107683
460.143219	962.573547	22565.283203	2701.397705	8.049103
460.499847	948.336731	22632.738281	2713.601074	8.140711
460.856476	962.912598	23432.492188	2773.712646	8.058896
461.213043	970.256958	23473.736328	2789.757324	8.085419
461.569550	983.138000	23422.324219	2781.395996	8.013919
461.926056	989.691406	23137.472656	2779.023193	8.079057
462.282501	983.589966	22484.945313	2717.895020	8.066027
462.638916	960.652710	21859.197266	2651.907471	8.092691
462.995331	949.127625	21229.044922	2595.863770	8.120033
463.351654	963.816406	21093.570313	2601.739746	8.136827
463.707947	954.664246	20570.988281	2555.300293	8.159714
464.064209	980.991089	20398.220703	2535.639648	8.006541
464.420441	949.579590	20180.488281	2512.250244	8.125829
464.776642	945.285950	19897.554688	2481.177734	8.103999
465.132782	963.929504	19953.826172	2522.306641	8.206349
465.488892	953.534302	19688.410156	2483.776611	8.167881
465.844971	961.104675	19968.060547	2503.436768	8.114567
466.201019	941.896118	20165.908203	2503.211182	8.121693
466.557007	946.076965	20183.083984	2524.792480	8.206658
466.912964	956.698059	20509.517578	2550.441650	8.150966
467.268890	947.319702	20767.251953	2564.791504	8.160834
467.624756	943.816895	20936.853516	2575.864502	8.163080
467.980591	959.974792	21240.574219	2624.224609	8.206117
468.336426	963.138672	21178.654297	2623.207764	8.211856
468.692169	958.957825	21075.716797	2563.548340	7.976387
469.047913	962.347534	20725.105469	2541.967041	7.992910
469.403625	940.879272	20624.089844	2535.978027	8.103854
469.759247	961.104675	20157.777344	2512.814941	8.083225
470.114838	938.280457	20184.777344	2506.374756	8.147428
470.470459	946.980835	20097.775391	2491.911865	8.067190
470.825958	945.737915	19836.880859	2460.161133	8.016579
471.181488	975.567566	19867.048828	2504.228027	8.091798
471.536926	978.053406	19877.781250	2489.087402	7.995003
471.892365	948.110718	20095.066406	2480.951904	8.005666
472.247742	961.443665	20069.189453	2510.781250	8.108427
472.603058	970.821960	20208.171875	2508.069580	7.990953
472.958374	977.714539	20499.800781	2563.322266	8.122122
473.313629	956.697876	20785.781250	2569.649902	8.134274
473.668884	970.935059	20968.714844	2601.287598	8.152668
474.024048	940.088257	21425.988281	2631.456299	8.256254
474.379211	951.161316	21498.527344	2622.642578	8.134771
474.734314	942.461121	21362.714844	2637.896973	8.302716
475.089417	939.184387	21377.628906	2632.021240	8.282611
475.444458	954.777222	21467.230469	2633.038330	8.181669
475.799438	937.715515	21440.117188	2616.993652	8.190640
476.154388	934.212708	21681.802734	2651.116943	8.275199
476.509308	955.229004	22090.607422	2697.782471	8.244723
476.864197	966.641235	22209.359375	2728.516113	8.294018
477.219025	956.697937	22574.662109	2749.871094	8.294828
477.573822	945.398804	23162.781250	2803.428955	8.362957
477.928619	936.133606	23544.125000	2826.705322	8.362405
478.283325	958.392883	23762.199219	2881.845215	8.434787
478.638000	946.528809	24242.751953	2909.302246	8.425286
478.992676	952.291321	24497.097656	2927.832520	8.390560
479.347260	1007.205078	25049.962891	3032.010986	8.421687
479.701843	964.946411	25196.849609	3043.648926	8.578372
480.056366	949.918457	25629.949219	3074.608643	8.608945
480.410858	981.443237	26296.031250	3136.753662	8.514105
480.765320	979.296387	26897.712891	3227.033936	8.672357
481.119751	943.591003	27471.822266	3267.936523	8.761781
481.474091	966.076294	28542.636719	3355.730957	8.665528
481.828430	956.359070	29719.675781	3479.456543	8.771928
482.182709	969.240112	31304.371094	3638.096436	8.797907
482.536987	947.545776	33105.347656	3799.899902	8.869866
482.891174	959.183777	35584.832031	4054.921875	8.940592
483.245361	958.392944	38864.289063	4310.847168	8.844150
483.599518	962.347534	43165.417969	4759.310059	8.996886
483.953644	961.895691	47441.132813	5219.862793	9.161009
484.307678	955.568176	50840.925781	5597.028320	9.304253
484.661713	956.811035	52736.468750	5869.336914	9.487367
485.015686	956.698059	53778.917969	6078.258789	9.695846
485.369659	963.477539	53526.730469	6062.100586	9.699976
485.723572	947.997681	52204.847656	5880.975098	9.624036
486.077423	946.754761	49882.085938	5601.661133	9.512362
486.431274	952.630371	47426.324219	5357.711914	9.478656
486.785034	954.099243	45941.390625	5252.856445	9.555492
487.138794	947.884644	45286.042969	5212.066895	9.617409
487.492523	978.166382	45642.988281	5302.911133	9.682664
487.846191	947.432800	46403.636719	5341.666992	9.666963
488.199829	958.731812	47120.343750	5489.347168	9.814681
488.553436	962.686646	47514.230469	5559.401855	9.874464
488.906982	959.409790	47365.195313	5540.645508	9.872122
489.260529	961.217773	46385.335938	5448.784180	9.879259
489.613983	959.522827	45168.871094	5359.067871	9.951617
489.967438	973.307800	43374.000000	5209.580566	9.991047
490.320831	960.313782	42093.699219	5093.086426	10.047246
490.674194	986.866821	41002.195313	4996.026367	10.019060
491.027527	956.698059	40920.054688	5014.557617	10.153952
491.380798	942.009155	41422.757813	5062.465820	10.178804
491.734070	967.545105	42819.664063	5234.325684	10.194899
492.087250	953.421265	43607.894531	5323.702148	10.245773
492.440430	957.263000	44059.632813	5420.083496	10.354002
492.793549	937.941589	43800.429688	5414.208496	10.443320
493.146637	963.251465	43270.843750	5330.932617	10.323634
493.499695	952.404419	41524.105469	5190.598145	10.446183
493.852692	968.562195	39076.039063	4944.615723	10.433788
494.205658	952.630493	36799.265625	4695.582520	10.441571
494.558594	978.166382	35063.257813	4562.592285	10.516110
494.911499	957.036926	33383.304688	4394.686523	10.601435
495.264374	942.574219	32157.572266	4231.301270	10.535728
495.617188	975.002808	31383.019531	4160.456055	10.475701
495.969940	955.003235	30913.197266	4090.288330	10.465535
496.322693	943.703918	30728.119141	4078.537109	10.525079
496.675385	958.844727	30821.900391	4124.862793	10.601789
497.028015	968.901001	30929.808594	4132.546875	10.559246
497.380676	954.212219	31045.062500	4101.474121	10.459199
497.733246	953.873230	30997.156250	4109.610352	10.503968
498.085785	1146.184570	31224.718750	4333.105957	10.595334
498.438263	959.409851	30905.628906	4093.677734	10.466323
498.790710	961.443665	30637.837891	4075.711670	10.494092
499.143158	972.742798	30333.890625	4008.030518	10.337769
499.495544	937.376343	29967.009766	3959.444092	10.410286
499.847870	950.709473	29433.578125	3908.598145	10.384799
500.200165	957.714966	29048.162109	3875.265625	10.386273
500.552429	957.488953	28556.537109	3802.385986	10.307953
500.904663	953.421204	28137.000000	3766.680420	10.349113
501.256866	972.742676	27986.269531	3742.387939	10.252809
501.609009	964.494507	27521.425781	3655.609863	10.133382
501.961090	951.161499	27261.542969	3630.413330	10.183250
502.313171	960.539734	27276.228516	3609.509766	10.066124
502.665253	950.709595	27067.650391	3599.340332	10.141428
503.017181	951.274414	26887.541016	3582.278564	10.144114
503.369110	928.563171	26865.621094	3577.419922	10.212633
503.721069	979.183289	26939.177734	3560.471436	9.943331
504.072937	963.025574	26989.912109	3564.538574	9.995482
504.424774	955.342102	26970.253906	3598.549561	10.160356
504.776520	945.737915	26978.390625	3548.606934	9.998479
505.128265	947.997742	26960.646484	3513.354004	9.861957
505.480042	947.997742	27122.902344	3547.816406	9.932486
505.831665	960.652710	26920.988281	3540.020264	9.935802
506.183289	950.935425	26781.667969	3509.625732	9.905605
506.534882	969.466003	26862.458984	3548.268311	9.959460
506.886505	945.511841	26631.619141	3505.332031	9.965777
507.237946	947.545715	26610.828125	3466.350098	9.814817
507.589417	943.139160	26637.494141	3483.298096	9.886058
507.940857	958.844849	26563.593750	3529.285889	10.038923
508.292297	957.488892	26682.916016	3522.957764	9.972502
508.643616	952.969360	26924.828125	3523.522949	9.897457
508.994904	949.918579	27103.244141	3584.425781	10.073317
509.346191	972.629761	27334.759766	3618.209473	10.035530
509.697479	962.460571	27390.015625	3634.254395	10.109879
510.048645	997.148804	27644.808594	3677.304688	10.057753
510.399780	970.596069	27683.453125	3635.271973	9.975256
510.750916	963.025513	27990.671875	3708.038330	10.156314
511.102051	960.313843	27982.878906	3721.822754	10.219270
511.453033	1008.335083	28217.113281	3782.499512	10.195845
511.804016	966.528198	28287.394531	3781.482422	10.303311
512.154968	940.314331	28474.166016	3816.735840	10.446855
512.505920	959.635742	28749.527344	3863.062500	10.447781
512.856750	963.138489	28683.765625	3905.207520	10.613285
513.207581	963.251648	28887.146484	3897.751221	10.508919
513.558411	962.121582	28898.562500	3951.873779	10.701980
513.909180	973.307922	28771.447266	3980.008301	10.816194
514.259888	963.816406	28819.240234	3980.912598	10.831270
514.610535	956.697937	28638.339844	4015.148926	11.048661
514.961182	943.365051	28481.621094	4030.515137	11.210405
515.311829	954.212097	28410.437500	4069.384277	11.345960
515.662354	955.567993	28513.037109	4121.473633	11.488377
516.012878	954.325195	28596.990234	4139.213379	11.521640
516.363281	933.421875	28715.855469	4222.375000	11.838247
516.713745	951.500366	28903.988281	4285.537109	11.927513
517.064209	950.144653	29331.208984	4394.348145	12.135569
517.414490	945.850952	29764.527344	4489.373535	12.295924
517.764832	948.336548	30423.042969	4614.341797	12.437800
518.115173	950.370483	31122.574219	4754.790039	12.609021
518.465393	955.003113	31990.458984	4903.938477	12.723948
518.815552	945.059937	32790.777344	5075.007813	12.968613
519.165710	975.454468	33280.929688	5178.847168	13.011394
519.515869	955.003296	33210.761719	5260.540039	13.348118
519.865967	956.245972	33593.921875	5374.774414	13.538122
520.216003	956.811035	33139.472656	5362.570801	13.689855
520.565918	968.223022	32688.177734	5406.750488	13.992855
520.915955	953.534302	32274.972656	5380.423340	14.133736
521.265869	960.087769	31683.796875	5397.032715	14.441436
521.615723	963.251465	31382.902344	5429.123047	14.680878
521.965576	1008.109070	31162.683594	5514.092773	14.942953
522.315369	952.517395	30819.074219	5514.770508	15.275456
522.665161	942.461121	30847.324219	5567.649414	15.466342
523.014832	940.653198	30950.488281	5651.151367	15.696514
523.364502	950.144531	31150.593750	5798.378906	16.053518
523.714172	961.895630	31240.083984	5897.810547	16.301884
524.063782	970.144043	31670.468750	6075.433594	16.629433
524.413330	946.076782	32247.972656	6284.807129	17.055613
524.762817	954.777222	32970.429688	6472.258789	17.233700
525.112366	950.822571	33842.054688	6697.451660	17.471615
525.461792	955.568054	35034.890625	7062.751465	17.920494
525.811157	966.641235	36072.042969	7409.861816	18.353930
526.160522	957.149902	37282.070313	7725.786133	18.633589
526.509827	963.477539	38267.921875	8048.262695	18.991798
526.859131	938.619446	39457.382813	8393.677734	19.354355
527.208313	953.082336	40903.222656	8836.603516	19.733400
527.557495	959.409790	42155.390625	9265.408203	20.162157
527.906738	947.658691	44086.867188	9840.532227	20.614365
528.255859	947.771790	46767.695313	10578.365234	21.018354
528.604919	959.635925	49593.156250	11539.470703	21.754204
528.953918	945.511841	51799.761719	12391.313477	22.507071
529.302917	956.811157	53005.394531	12961.580078	23.064545
529.651917	991.725403	53731.925781	13368.349609	23.467154
530.000793	956.133118	53393.511719	13404.846680	23.740152
530.349609	969.692017	52210.039063	13175.698242	23.821083
530.698547	975.115723	50100.375000	12700.457031	23.868256
531.047302	983.138000	47163.957031	12083.072266	24.035810
531.396057	954.099243	44752.273438	11636.642578	24.390383
531.744751	951.274414	42749.726563	11233.263672	24.598970
532.093445	949.240601	41547.722656	11061.743164	24.908575
532.442139	972.516785	40877.125000	11105.809570	25.393791
532.790710	964.494324	40832.937500	11264.335938	25.834574
533.139160	937.602417	41959.808594	11793.250977	26.462858
533.487732	952.856262	42707.234375	12216.289063	26.975452
533.836243	951.161438	43355.585938	12458.429688	27.136951
534.184631	946.415710	43596.480469	12687.802734	27.529587
534.533020	953.308289	43568.570313	12888.023438	28.005730
534.881348	946.302856	42593.117188	12728.139648	28.289888
535.229736	964.494446	41422.976563	12494.924805	28.499416
535.577942	969.353027	39897.480469	12216.740234	28.892698
535.926086	982.686035	38711.867188	12067.818359	29.380795
536.274353	952.856323	38155.039063	11978.893555	29.638145
536.622498	974.776672	37817.308594	12085.669922	30.157791
536.970642	957.488953	37766.238281	12158.324219	30.429815
537.318665	935.681519	37596.976563	12211.318359	30.756241
537.666687	944.946960	37306.820313	12321.596680	31.287302
538.014709	953.647156	36949.648438	12257.644531	31.403481
538.362610	943.591125	36242.441406	12166.459961	31.793865
538.710510	956.810913	35548.445313	12112.223633	32.248878
539.058411	961.330688	34723.265625	11914.375977	32.441994
539.406250	956.472046	34345.988281	11898.106445	32.769672
539.753967	960.313782	34301.476563	12042.056641	33.237423
540.101746	968.336121	34497.398438	12192.109375	33.474762
540.449463	951.387512	35578.503906	12742.263672	34.050991
540.797119	998.165894	36877.671875	13326.656250	34.360813
541.144714	949.353699	38928.132813	14115.223633	34.666386
541.492249	962.234558	40738.929688	14893.056641	35.022572
541.839844	961.104675	42496.281250	15688.060547	35.456589
542.187378	958.957886	43361.234375	16170.876953	35.875240
542.534790	942.574097	43591.398438	16358.439453	36.146049
542.882202	951.387512	43519.300781	16433.804688	36.371098
543.229553	948.336731	42402.046875	16083.080078	36.509983
543.576965	949.579590	40825.367188	15606.031250	36.755264
543.924194	950.257507	39347.777344	15087.626953	36.818443
544.271423	946.754761	37670.871094	14555.437500	37.056526
544.618652	948.562683	36318.820313	14124.034180	37.250145
544.965881	978.392395	34997.500000	13718.396484	37.449551
545.312988	945.285828	33940.687500	13333.208984	37.544392
545.660034	992.855286	32979.136719	13115.362305	37.899082
546.007141	974.889648	32279.605469	12825.651367	37.856155
546.354126	944.042969	31827.521484	12742.602539	38.203468
546.701111	958.732056	31658.712891	12732.659180	38.351578
547.048035	940.427246	31600.527344	12783.845703	38.628113
547.394836	942.913086	31362.453125	12783.731445	38.925041
547.741699	954.777161	31027.542969	12738.988281	39.185658
548.088562	960.426758	30631.285156	12597.070313	39.219097
548.435303	954.551270	30109.150391	12455.943359	39.449669
548.781921	960.539856	29157.083984	12127.478516	39.603924
549.128662	961.443665	28389.425781	11819.576172	39.587791
549.475342	955.003113	27574.302734	11614.270508	40.043381
549.821899	957.036987	26781.781250	11278.233398	39.966305
550.168457	996.018921	26222.136719	11091.122070	40.018459
550.515015	986.075684	25530.740234	10897.906250	40.382832
550.861511	974.776733	25116.519531	10730.113281	40.408588
551.207886	955.342285	24858.894531	10659.719727	40.598053
551.554260	988.109680	24549.978516	10645.708984	40.988258
551.900635	965.511353	24573.136719	10566.727539	40.669979
552.247009	953.421204	24501.617188	10601.755859	40.972713
552.593262	952.856262	24418.226563	10627.064453	41.227592
552.939392	950.709473	24743.980469	10790.791016	41.356575
553.285645	956.246094	24691.894531	10739.491211	41.217518
553.631775	963.477661	24608.394531	10744.124023	41.364693
553.977905	961.782593	24557.660156	10845.815430	41.888813
554.323975	948.788574	24398.796875	10733.390625	41.725365
554.669983	959.635864	24331.226563	10739.492188	41.845062
555.015991	933.195801	23925.248047	10553.394531	41.841412
555.361877	941.783081	23588.644531	10456.674805	42.014172
555.707825	955.229126	23158.375000	10362.891602	42.370850
556.053711	949.127747	23000.638672	10309.785156	42.449051
556.399536	953.308289	22729.121094	10174.873047	42.347740
556.745239	944.833984	22627.427734	10131.146484	42.367222
557.091003	941.670227	22393.646484	10085.384766	42.624115
557.436707	949.353516	22292.181641	10088.888672	42.822514
557.782410	945.511841	22239.980469	10023.691406	42.631634
558.127991	954.099304	21982.357422	9984.256836	42.942963
558.473511	978.618347	21932.191406	9956.009766	42.844204
558.819092	953.873230	21850.839844	9908.552734	42.851578
559.164612	956.923950	21730.277344	9880.982422	42.959164
559.510010	963.251587	21646.324219	9865.277344	43.040150
559.855408	946.302734	21609.939453	9882.905273	43.247967
560.200806	961.217590	21506.105469	9839.855469	43.215797
560.546143	941.331238	21429.716797	9814.205078	43.306850
560.891357	952.065430	21650.166016	9938.947266	43.418869
561.236633	973.194824	21619.433594	9946.518555	43.462273
561.581848	950.483398	21659.771484	10007.533203	43.734238
561.927002	944.268921	21640.673828	9975.217773	43.635353
562.272095	942.235046	21752.199219	10048.096680	43.757217
562.617126	960.765808	21682.595703	10078.154297	43.998955
562.962219	975.228638	21612.087891	10051.034180	43.978619
563.307251	961.443726	21581.917969	10000.302734	43.834389
563.652161	950.596497	21542.259766	9976.123047	43.830971
563.997009	947.319702	21514.689453	10000.415039	44.016788
564.341919	947.206726	21496.609375	9988.665039	43.998642
564.686768	953.534302	21454.919922	10021.091797	44.229000
565.031555	947.432739	21594.916016	10070.583984	44.185295
565.376282	977.375366	21793.550781	10214.419922	44.374359
565.721008	974.550659	21973.998047	10291.482422	44.367508
566.065674	959.635742	22286.082031	10439.273438	44.450153
566.410278	950.370483	22573.984375	10590.117188	44.579723
566.754822	954.777222	22938.494141	10727.516602	44.454445
567.099365	942.009155	23025.498047	10788.416992	44.587196
567.443909	936.811523	23154.417969	10800.054688	44.393818
567.788330	957.150024	22964.255859	10820.505859	44.818958
568.132751	957.940918	22907.984375	10788.755859	44.787220
568.477112	947.206665	22553.082031	10628.759766	44.809814
568.821533	946.641785	22335.347656	10525.373047	44.784065
569.165771	969.127075	22193.878906	10482.098633	44.820179
569.510010	960.878601	22127.892578	10382.438477	44.510574
569.854248	977.262390	22036.033203	10403.569336	44.761902
570.198364	955.455078	21883.042969	10332.609375	44.807621
570.542542	960.087769	22081.679688	10390.461914	44.648026
570.886536	961.330688	22087.894531	10375.999023	44.563175
571.230591	948.562683	22226.306641	10468.989258	44.743591
571.574646	957.375977	22419.410156	10585.258789	44.860065
571.918518	950.370422	22539.861328	10718.587891	45.245247
572.262451	935.229675	22790.021484	10815.083984	45.206814
572.606323	960.991699	22996.910156	10923.666992	45.211075
572.950195	950.596497	23073.740234	10955.756836	45.224857
573.293945	942.800171	23172.160156	10970.333984	45.109417
573.637695	956.472046	22822.560547	10944.795898	45.679520
573.981384	962.008606	22728.441406	10846.041016	45.409515
574.325134	966.641235	22605.505859	10794.517578	45.417706
574.668701	944.042969	22414.890625	10695.539063	45.417377
575.012268	944.269043	22252.070313	10653.052734	45.564453
575.355774	949.353516	22132.410156	10624.919922	45.675968
575.699341	955.342102	22115.687500	10575.427734	45.462803
576.042725	964.042603	21951.062500	10533.283203	45.595993
576.386169	961.782715	21821.685547	10439.500000	45.435097
576.729553	965.285461	21577.849609	10376.336914	45.656872
577.072876	987.770630	21347.458984	10287.977539	45.679516
577.416138	991.499329	20946.566406	10102.672852	45.658447
577.759399	963.816406	20571.775391	9918.609375	45.669174
578.102600	957.036987	20300.484375	9755.111328	45.483486
578.445801	961.669617	19976.875000	9629.011719	45.581112
578.788940	966.867371	19647.052734	9507.094727	45.718109
579.131897	954.325317	19392.597656	9405.176758	45.833210
579.474976	963.816406	19120.964844	9340.658203	46.135227
579.817993	959.409973	18863.005859	9193.995117	45.994030
580.160950	957.375977	18668.210938	9041.119141	45.642921
580.503845	974.098633	18403.923828	8982.814453	45.948345
580.846680	950.257507	18292.966797	8895.248047	45.811707
581.189514	949.127625	18092.406250	8845.868164	46.063187
581.532349	941.896179	17947.437500	8786.661133	46.130642
581.875061	959.183777	17848.230469	8741.239258	46.077530
582.217773	955.567993	17766.988281	8683.953125	45.971043
582.560425	994.889038	17781.570313	8710.731445	45.964069
582.903076	975.228638	17594.791016	8669.714844	46.297768
583.245667	947.432617	17492.875000	8571.526367	46.079723
583.588135	948.110718	17565.187500	8545.085938	45.717880
583.930664	953.421265	17374.230469	8487.912109	45.883797
584.273071	945.398804	17288.808594	8460.229492	45.980801
584.615479	967.884155	17216.609375	8446.669922	46.026905
584.957825	951.274536	17185.650391	8413.451172	45.965282
585.300232	951.048462	17100.792969	8397.067383	46.106110
585.642517	957.715027	16913.453125	8325.543945	46.176674
585.984680	965.285339	17025.203125	8316.391602	45.773003
586.326843	970.708984	16930.177734	8307.917969	45.974018
586.669067	988.787720	16885.769531	8364.073242	46.394253
587.011230	979.861328	16864.189453	8328.821289	46.265476
587.353271	954.890137	16833.908203	8326.900391	46.426109
587.695251	950.822388	16822.042969	8284.189453	46.205441
588.037231	968.336121	16878.539063	8375.260742	46.554558
588.379211	954.212219	16808.482422	8345.317383	46.619015
588.721069	966.641113	16888.144531	8406.446289	46.728031
589.062927	948.788696	16998.308594	8393.677734	46.386990
589.404785	995.341125	17082.828125	8446.218750	46.314735
589.746582	943.139282	17053.789063	8446.556641	46.574272
590.088257	956.246094	17174.011719	8489.267578	46.449196
590.429932	972.290710	17195.255859	8485.878906	46.314522
590.771606	949.014465	17184.068359	8487.798828	46.435226
591.113220	952.065308	17181.128906	8557.062500	46.860355
591.454773	1007.431152	17166.214844	8548.587891	46.669086
591.796265	954.777222	17047.460938	8486.443359	46.801804
592.137817	960.652832	16909.613281	8437.065430	46.877113
592.479248	958.505859	16799.447266	8372.436523	46.802338
592.820618	952.178345	16793.117188	8377.181641	46.872246
593.161926	967.997253	16651.765625	8328.368164	46.929863
593.503296	961.104797	16738.769531	8320.458984	46.644127
593.844604	953.082336	16767.359375	8371.418945	46.909107
594.185791	952.291321	16796.619141	8348.820313	46.682503
594.526917	952.856262	16906.675781	8400.117188	46.680111
594.868103	955.794067	16959.781250	8425.541016	46.674286
595.209229	955.003235	17011.642578	8495.143555	46.959641
595.550232	961.443665	17248.134766	8560.791992	46.659866
595.891235	951.387390	17383.271484	8597.740234	46.533634
596.232178	963.477539	17583.716797	8740.560547	46.792850
596.573181	971.951965	17766.990234	8837.508789	46.832619
596.914063	946.754761	18091.048828	8992.985352	46.932407
597.254883	958.279968	18262.910156	9095.465820	47.023170
597.595703	962.008606	18366.070313	9152.979492	47.063557
597.936462	958.844849	18404.828125	9213.205078	47.313816
598.277161	947.545715	18252.628906	9095.919922	47.086590
598.617798	958.957703	18019.867188	9003.378906	47.151184
598.958435	958.279785	17681.343750	8828.920898	47.064587
599.299072	971.951843	17220.228516	8605.649414	46.981586
599.639587	969.466003	16778.318359	8426.557617	47.170353
599.980103	977.827515	16557.078125	8271.083008	46.813904
600.320557	970.370117	16285.333984	8240.687500	47.471985
600.661072	950.822449	16017.432617	8046.116211	47.092834
601.001404	950.144653	15926.698242	7997.077148	47.053101
601.341675	968.110168	15752.693359	7957.531250	47.275063
601.681946	957.715027	15723.767578	7924.311035	47.179813
602.022278	959.974731	15825.120117	7943.972656	46.982372
602.362427	943.929993	15776.987305	7947.927246	47.218834
602.702576	957.941040	15932.689453	8016.738281	47.138004
603.042725	945.963867	16154.830078	8099.899902	47.037930
603.382813	964.833496	16380.812500	8251.760742	47.268665
603.722839	960.878723	16769.501953	8389.384766	46.990215
604.062805	973.420776	17015.822266	8585.084961	47.447163
604.402771	1019.295288	17366.775391	8787.001953	47.516232
604.742737	962.912415	17757.160156	8923.154297	47.398621
605.082581	952.856323	17871.511719	8959.314453	47.323250
605.422363	959.296875	18086.531250	9088.688477	47.464706
605.762146	950.822571	18012.292969	9056.824219	47.510567
606.101929	952.856323	17944.501953	9032.982422	47.553520
606.441589	967.432251	17713.093750	8940.556641	47.613075
606.781189	967.093262	17372.425781	8750.166992	47.442341
607.120850	973.985718	16990.175781	8547.797852	47.288475
607.460388	961.330688	16619.562500	8413.451172	47.592350
607.799927	968.901062	16371.320313	8303.058594	47.616920
608.139404	960.878723	16153.135742	8186.225586	47.559402
608.478821	967.545105	16029.521484	8101.256348	47.362385
608.818298	978.505493	16024.888672	8082.161133	47.211716
609.157593	965.963257	16173.698242	8182.157715	47.450813
609.496887	971.725952	16246.353516	8250.969727	47.655785
609.836182	960.426758	16451.773438	8318.764648	47.499664
610.175415	948.336731	16538.548828	8392.096680	47.746368
610.514526	981.895020	16569.507813	8372.208984	47.411453
610.853699	980.200073	16557.302734	8383.509766	47.526871
611.192688	951.726379	16381.604492	8330.402344	47.820702
611.531799	946.076965	16212.908203	8220.349609	47.647560
611.870850	980.539246	15932.122070	8122.159180	47.764977
612.209778	962.912415	15644.901367	7938.209473	47.509209
612.548645	954.325195	15333.270508	7784.427246	47.500717
612.887573	960.539673	15066.948242	7700.361816	47.778442
613.226440	946.415710	14804.919922	7590.196289	47.940102
613.565186	952.065430	14619.051758	7462.516602	47.636333
613.903931	963.025574	14430.244141	7388.167969	47.709499
614.242676	964.042480	14343.463867	7340.258789	47.656891
614.581360	973.533691	14227.421875	7312.916504	47.830360
614.919983	949.692566	14091.494141	7235.403320	47.829903
615.258484	982.460083	13966.752930	7206.477539	47.934975
615.597046	955.455078	13982.117188	7172.240723	47.723549
615.935547	945.850891	13820.765625	7119.812500	47.953415
616.273987	954.777222	13819.862305	7135.519531	48.042763
616.612366	996.923035	13784.609375	7091.113281	47.656708
616.950806	965.963257	13813.309570	7127.834961	47.962212
617.289124	979.296387	13785.400391	7095.520508	47.760227
617.627380	975.680542	13741.559570	7104.897461	48.012493
617.965515	956.698059	13814.778320	7126.930664	47.987198
618.303772	969.917969	13885.059570	7146.027344	47.820686
618.641968	956.810913	13780.426758	7068.401367	47.658867
618.980042	948.788696	13770.373047	7081.057129	47.827698
619.318054	943.703979	13756.474609	7112.015625	48.141903
619.656128	947.884644	13747.098633	7063.882813	47.784168
619.994080	968.674988	13679.979492	7043.092285	47.787521
620.331970	976.358582	13688.001953	7052.583496	47.800468
620.669861	963.590515	13565.630859	7006.933594	47.955276
621.007751	946.980591	13488.911133	6943.432617	47.811237
621.345581	952.065308	13498.513672	6984.109375	48.077702
621.683289	950.144531	13500.776367	6937.333008	47.704281
622.020996	946.754761	13428.573242	6889.084961	47.607887
622.358704	937.263489	13379.309570	6888.181152	47.829090
622.696350	959.522766	13251.742188	6882.757813	48.186863
623.033875	980.765320	13273.662109	6888.180664	48.055523
623.371460	955.568176	13258.748047	6884.678223	48.191689
623.708984	974.663696	13263.833008	6886.372070	48.105030
624.046448	965.737305	13255.809570	6853.493164	47.906601
624.383789	960.878723	13231.065430	6852.362305	48.014618
624.721191	953.534180	13252.307617	6901.852539	48.365135
625.058533	933.421753	13235.583984	6862.192383	48.192913
625.395813	957.827942	13303.151367	6883.208496	47.996964
625.733032	965.511353	13447.895508	6941.739258	47.877296
626.070190	962.460632	13516.254883	6972.472656	47.874069
626.407410	985.284790	13668.115234	7071.903809	47.991016
626.744507	961.443726	13706.192383	7092.017090	48.102737
627.081543	952.291504	13862.122070	7138.570313	47.919136
627.418518	964.494507	13991.833984	7224.217285	48.050659
627.755554	952.517273	13995.904297	7200.036621	47.897987
628.092529	963.477356	14034.208008	7252.803223	48.117630
628.429382	958.166870	13904.041992	7160.602539	47.910515
628.766174	974.663574	13773.421875	7148.173340	48.235226
629.103027	967.206360	13723.593750	7079.249023	47.913582
629.439819	954.890259	13500.887695	6991.454590	48.115463
629.776489	967.432251	13333.434570	6931.231445	48.227383
630.113159	961.669739	13250.498047	6854.169434	47.950054
630.449829	973.081848	13023.952148	6780.838867	48.193672
630.786377	953.986328	12910.958984	6721.856934	48.238552
631.122925	996.132019	12868.927734	6716.885742	48.183712
631.459412	995.002136	12716.728516	6662.199219	48.347801
631.795898	960.313782	12628.931641	6605.702148	48.380947
632.132324	957.601929	12505.886719	6527.963867	48.235401
632.468689	963.816528	12413.008789	6496.891113	48.327206
632.804993	940.201172	12315.947266	6429.887695	48.257816
633.141296	933.986694	12252.558594	6379.380859	48.110256
633.477539	959.409851	12217.643555	6392.036133	48.254696
633.813721	944.156067	12171.883789	6336.895996	48.030556
634.149841	939.410278	12163.748047	6395.200195	48.606789
634.485962	966.189270	12126.685547	6367.516602	48.396839
634.822083	975.680542	12153.579102	6366.951660	48.231525
635.158020	975.002625	12077.876953	6344.465820	48.361023
635.494019	963.364563	12039.570313	6271.699707	47.925571
635.829956	966.302246	11847.711914	6254.524902	48.598690
636.165894	956.924011	11746.697266	6148.200195	48.112930
636.501709	977.036499	11671.669922	6157.240234	48.437408
636.837463	949.240540	11599.130859	6066.733398	48.052067
637.173279	977.262573	11438.908203	6006.848633	48.076431
637.509033	962.347656	11375.857422	6004.362305	48.418015
637.844666	948.788452	11251.456055	5927.075195	48.320362
638.180237	981.782227	11187.163086	5933.968750	48.525249
638.515869	940.653198	11078.579102	5812.276855	48.053455
638.851440	948.562622	10952.820313	5783.012207	48.323921
639.186890	962.912476	10867.962891	5762.786621	48.458855
639.522339	973.646667	10805.478516	5694.200195	48.012962
639.857727	947.658813	10790.562500	5691.375977	48.194290
640.193176	985.284790	10633.053711	5680.868164	48.670151
640.528442	948.449585	10603.675781	5618.270508	48.365730
640.863708	950.709473	10491.815430	5597.028320	48.697910
641.198914	950.596558	10451.364258	5555.447266	48.468197
641.534180	945.511841	10428.990234	5526.068848	48.300388
641.869263	932.743835	10347.636719	5529.346680	48.822681
642.204346	961.782593	10300.859375	5493.866211	48.528172
642.539368	950.031555	10197.472656	5419.631348	48.333366
642.874390	968.788086	10190.013672	5446.862793	48.562683
643.209412	932.065796	10105.498047	5374.435059	48.426464
643.544312	974.550781	10075.893555	5412.061523	48.756660
643.879150	966.076294	10078.039063	5390.932129	48.560951
644.213989	959.974792	9987.533203	5320.198730	48.299038
644.548828	965.511353	9928.779297	5320.086426	48.582451
644.883545	963.364563	9974.766602	5308.561035	48.218868
645.218262	946.076843	9878.837891	5262.347168	48.319557
645.552856	962.347656	9921.886719	5321.781250	48.656895
645.887573	982.121094	9879.063477	5299.634766	48.528061
646.222107	947.093750	9902.791016	5273.646973	48.310623
646.556580	954.438171	9905.616211	5269.352539	48.204994
646.891113	949.127625	9883.921875	5259.071289	48.237755
647.225586	956.472046	9920.192383	5285.397461	48.293842
647.559937	951.613281	9926.970703	5292.854492	48.368450
647.894226	943.478027	9913.638672	5274.664063	48.284378
648.228577	985.284790	9961.545898	5340.198242	48.515900
648.562927	951.952454	9895.898438	5248.562500	48.039307
648.897095	969.805054	9870.474609	5284.267578	48.473457
649.231262	930.935913	9851.266602	5241.331055	48.321022
649.565430	985.171875	9841.662109	5262.346680	48.294243
649.899475	954.551147	9830.927734	5243.704102	48.320984
650.233521	988.335571	9783.923828	5259.862305	48.564426
650.567505	952.178345	9746.295898	5185.514160	48.138271
650.901428	958.054016	9749.914063	5217.264160	48.444923
651.235413	957.263000	9724.942383	5181.219727	48.176445
651.569275	945.172852	9739.517578	5205.061523	48.438953
651.903015	982.798950	9692.287109	5206.981445	48.500927
652.236816	931.275024	9651.157227	5174.327148	48.659515
652.570618	956.924011	9616.583008	5121.786133	48.094990
652.904297	983.364136	9638.502930	5170.711914	48.379902
653.237915	955.229126	9548.450195	5133.198242	48.619366
653.571533	942.348145	9542.348633	5105.402344	48.407608
653.905090	963.477661	9448.677734	5092.860840	48.665714
654.238586	938.280457	9400.657227	5046.647461	48.548618
654.572021	958.618835	9310.037109	4998.851563	48.377804
654.905457	952.404480	9366.080078	5039.302246	48.574463
655.238892	968.449097	9311.845703	4993.766602	48.245548
655.572144	967.771118	9247.666016	5011.732422	48.840736
655.905457	959.070984	9147.104492	4963.033203	48.900166
656.238708	962.008789	9161.340820	4959.304688	48.751484
656.571960	960.539734	9203.487305	4955.236816	48.461998
656.905090	959.296875	9182.470703	4926.649902	48.246006
657.238159	956.133118	9164.842773	4932.412598	48.439762
657.571289	1000.425659	9257.720703	4986.648926	48.275169
657.904358	955.907043	9216.479492	4983.711426	48.759388
658.237305	954.551392	9286.762695	5004.500977	48.605942
658.570190	936.585571	9465.740234	5042.014648	48.134071
658.903076	945.285950	9523.704102	5114.442383	48.600525
659.236023	957.036987	9680.083984	5161.897949	48.204037
659.568787	944.833862	9821.436523	5235.229492	48.333755
659.901428	962.686523	9944.371094	5286.753906	48.143166
660.234192	956.924011	10027.759766	5343.249023	48.356350
660.566895	956.246094	10003.692383	5347.995117	48.541309
660.899536	966.641296	10044.822266	5350.141602	48.286114
661.232056	959.974792	9900.416992	5255.002930	48.040443
661.564636	940.088257	9746.072266	5215.230957	48.548149
661.897156	960.765747	9637.036133	5169.807617	48.512112
662.229553	943.026062	9459.865234	5080.544434	48.580448
662.561951	962.799500	9293.314453	4987.665039	48.314728
662.894287	980.991211	9232.185547	4986.196289	48.540913
663.226685	958.280090	9076.032227	4882.583984	48.342251
663.558899	981.104187	8971.064453	4838.516602	48.278240
663.891052	953.647278	8839.993164	4745.298340	48.078682
664.223328	977.488403	8773.441406	4746.090332	48.340492
664.555420	967.432251	8639.321289	4697.729980	48.622936
664.887512	949.805542	8574.349609	4657.504883	48.628471
665.219543	968.788208	8517.742188	4646.883789	48.723248
665.551575	968.675110	8500.680664	4596.940918	48.171314
665.883545	956.924011	8406.785156	4579.766602	48.629665
666.215454	948.223633	8395.937500	4597.506836	48.998703
666.547302	944.381958	8329.271484	4522.593262	48.453148
666.879150	1003.024536	8386.220703	4590.048340	48.583618
667.210938	959.748718	8328.707031	4538.072266	48.559422
667.542664	971.838745	8317.069336	4520.107422	48.307110
667.874268	959.070801	8312.324219	4520.333496	48.431114
668.205994	954.777161	8247.466797	4509.259766	48.740353
668.537537	972.855835	8294.019531	4464.515137	47.692680
668.869080	963.138489	8315.487305	4497.509277	48.071316
669.200562	954.777161	8206.337891	4481.689453	48.636597
669.532043	949.014526	8243.060547	4501.577148	48.704964
669.863525	967.093262	8247.580078	4503.497070	48.573727
670.194824	958.166870	8233.004883	4449.036133	47.985523
670.526184	958.844849	8231.420898	4487.113770	48.514706
670.857483	970.821960	8161.480469	4432.426270	48.140293
671.188660	957.150024	8152.892090	4435.476563	48.338676
671.519897	952.743469	8084.646973	4424.290527	48.676308
671.851013	952.178345	8046.229004	4356.947754	47.994717
672.182129	977.262512	7999.338379	4372.540039	48.351482
672.513184	941.331238	7952.559570	4311.977539	48.074974
672.844238	999.860718	8012.332031	4346.326660	47.721634
673.175171	957.714966	7887.928711	4292.994629	48.126652
673.506104	984.380737	7908.153809	4343.728027	48.519024
673.836975	951.726379	7836.517090	4302.259766	48.665730
674.167786	962.686523	7808.834473	4258.306641	48.138313
674.498596	952.743286	7780.134277	4235.933594	48.088505
674.829407	951.161316	7726.802246	4214.239746	48.158962
675.160034	960.539673	7729.740723	4241.922852	48.475193
675.490723	938.958313	7673.921875	4214.804688	48.639408
675.821289	934.438660	7636.748535	4169.155762	48.262718
676.151917	966.076355	7618.443848	4155.822754	47.949039
676.482422	957.036987	7611.100098	4178.647461	48.415688
676.812927	948.449585	7570.083496	4146.331055	48.294445
677.143311	965.511414	7579.348633	4165.653320	48.385555
677.473694	959.522766	7533.474121	4140.682129	48.390373
677.804016	938.054504	7577.314941	4155.709473	48.464058
678.134338	946.754883	7550.760742	4130.173828	48.204361
678.464539	975.680542	7592.003906	4209.946289	48.883125
678.794800	973.194824	7590.083496	4186.104492	48.556198
679.124878	962.347534	7641.267090	4185.426758	48.257492
679.455078	956.020142	7665.334961	4190.624023	48.210644
679.785095	953.421265	7734.033691	4206.442871	47.975334
680.115173	932.743835	7796.178711	4270.735352	48.634415
680.445129	952.291321	7809.963867	4271.526367	48.401775
680.775024	975.228638	7902.955566	4333.671387	48.478279
681.104919	958.618958	7932.899414	4320.903320	48.209770
681.434814	943.704102	7937.079102	4330.281738	48.425510
681.764526	936.020630	7912.561035	4362.371094	49.112457
682.094360	938.167358	7975.609375	4338.870117	48.322994
682.424011	988.335449	8017.303711	4378.642090	48.233345
682.753723	965.511536	7982.276367	4330.733398	47.959736
683.083313	969.353027	7921.260742	4301.129883	47.926079
683.412903	965.059448	7917.306152	4347.456543	48.651855
683.742432	944.382019	7791.660156	4249.718262	48.272263
684.071899	955.455200	7729.289063	4264.068848	48.844032
684.401306	968.901062	7620.025879	4208.137695	48.702084
684.730713	1559.507080	7786.349121	4368.359863	45.108788
685.060059	1033.193115	7439.013184	4140.004883	48.499828
685.389404	978.844360	7368.959473	4068.932373	48.357311
685.718628	968.223022	7241.391602	4041.362549	48.988636
686.047852	950.257507	7247.379883	4023.848877	48.809456
686.376953	993.194214	7207.493652	4032.097168	48.901779
686.706116	952.969360	7190.319336	4014.018799	49.076118
687.035156	961.217651	7177.890625	4004.753418	48.957630
687.364197	943.930054	7201.958008	4000.233643	48.838131
687.693176	968.223022	7161.393555	4009.950684	49.114223
688.022156	947.432800	7232.013184	4038.876465	49.190929
688.351013	951.387329	7221.957031	3999.668701	48.612507
688.679871	952.065430	7223.991211	4007.690918	48.719093
689.008606	974.437683	7226.928711	4008.594971	48.527172
689.337402	939.184265	7191.110352	4001.364014	48.979778
689.666138	947.884766	7083.654785	3982.493652	49.457668
689.994751	949.579468	7022.415039	3900.688721	48.595245
690.323364	951.839478	6934.618652	3885.999512	49.043430
690.651917	951.387390	6867.616211	3835.492188	48.749039
690.980469	975.567566	6789.651367	3841.028809	49.284824
691.308960	980.426147	6745.246094	3788.826904	48.716194
691.637451	971.951843	6673.497070	3749.731934	48.719772
691.965759	958.732056	6565.928711	3715.834473	49.170784
692.294128	975.906555	6486.948242	3703.744629	49.497688
692.622437	953.421265	6438.475586	3622.051514	48.652763
692.950684	968.788208	6379.380371	3652.220215	49.595905
693.278870	957.714844	6374.182617	3611.204346	48.989296
693.607117	946.528809	6287.630859	3576.290283	49.236309
693.935120	969.014038	6243.677246	3542.731689	48.793976
694.263245	953.195190	6209.215820	3548.720703	49.381950
694.591248	975.341614	6218.254395	3531.206299	48.748947
694.919250	952.856262	6162.662598	3530.415527	49.475147
695.247192	957.150024	6134.979492	3510.529297	49.313702
695.575073	966.528198	6134.753418	3520.472168	49.416267
695.902893	945.285828	6159.499023	3506.461426	49.119118
696.230774	960.313660	6115.883789	3486.800781	49.004997
696.558411	966.641235	6193.735840	3533.127686	49.099670
696.886169	962.347534	6186.842773	3494.145264	48.460144
697.213806	942.913086	6194.526367	3552.675293	49.694485
697.541443	964.155457	6297.461914	3582.504639	49.094292
697.869019	942.574036	6367.290039	3604.425293	49.068954
698.196533	949.466492	6489.660645	3657.192139	48.874199
698.524048	945.624878	6637.339844	3725.100098	48.833702
698.851501	974.437805	6777.448242	3828.938965	49.190010
699.178772	960.991821	6942.416504	3894.925781	49.050755
699.506226	970.821899	7033.148438	3922.382813	48.686935
699.833435	974.098633	7142.636719	3981.138184	48.748009
700.160767	944.043091	7061.848633	3945.998535	49.069157
700.487915	946.076843	7018.459473	3948.031982	49.436195
700.815063	956.472046	6905.241211	3868.260254	48.947742
701.142151	939.975403	6787.278809	3821.707520	49.283096
701.469238	971.386902	6680.728027	3763.742676	48.908543
701.796265	945.172974	6510.901855	3689.055908	49.299614
702.123230	961.217590	6411.243652	3653.914795	49.407055
702.450134	963.251587	6221.192383	3558.324707	49.355312
702.777039	975.454590	6139.951660	3510.077393	49.077824
703.103882	972.403809	6029.446289	3453.129639	49.054874
703.430664	976.019653	5898.489258	3377.877441	48.793758
703.757385	954.664063	5799.508301	3358.668701	49.619854
704.084106	950.031555	5720.075684	3286.240967	48.976688
704.410767	941.783081	5650.134277	3269.744385	49.443241
704.737366	962.799500	5579.401367	3206.582520	48.602478
705.063904	993.872192	5624.372070	3261.496338	48.971474
705.390442	960.313782	5487.313477	3202.627441	49.532005
705.716919	962.347534	5450.930176	3173.475830	49.261173
706.043396	947.771667	5397.485352	3148.278809	49.452778
706.369690	956.698059	5376.355957	3143.533203	49.479740
706.696106	975.341614	5438.161621	3211.101563	50.097473
707.022278	962.686646	5329.688965	3129.860840	49.626129
707.348633	942.800110	5377.824707	3118.900879	49.066265
707.674805	955.455078	5370.706543	3131.443115	49.283443
708.000916	953.534180	5390.367676	3152.798584	49.568333
708.327026	939.071289	5335.226563	3110.652588	49.397285
708.653076	943.930054	5351.723633	3111.556885	49.177143
708.979065	950.596375	5362.909180	3112.912598	49.006409
709.305054	951.274414	5363.587891	3095.060059	48.586430
709.630920	956.133118	5385.508789	3149.069580	49.508934
709.956787	954.212219	5419.971191	3144.098145	49.037266
710.282593	931.839966	5451.608398	3163.419678	49.373756
710.608459	953.760254	5461.890625	3189.633545	49.596466
710.934082	943.365051	5497.595215	3215.960693	49.900768
711.259827	942.461060	5626.857910	3263.417236	49.546528
711.585449	954.325195	5625.502441	3259.010254	49.338421
711.911072	966.528320	5719.170898	3304.884766	49.201183
712.236572	944.381958	5706.290039	3273.247314	48.906136
712.562073	967.997070	5687.872559	3303.755127	49.487705
712.887512	959.296753	5675.331543	3295.958984	49.547180
713.213013	940.201355	5618.270508	3288.162109	50.190807
713.538330	954.551147	5608.553711	3277.427734	49.911373
713.863647	947.545715	5546.634277	3217.768799	49.362461
714.188904	962.347656	5471.495117	3199.689941	49.617855
714.514099	963.477539	5424.264648	3165.679443	49.368011
714.839294	965.285339	5378.728516	3153.815674	49.587818
715.164490	968.562012	5367.316895	3140.934082	49.386066
715.489502	991.499390	5343.475098	3150.651611	49.613155
715.814575	971.612976	5287.544434	3115.285400	49.668819
716.139526	973.759766	5296.131348	3119.579102	49.644489
716.464539	948.901672	5261.782227	3065.230225	49.069958
716.789368	944.381836	5246.528320	3059.128418	49.155617
717.114258	966.754395	5218.506836	3084.551758	49.809986
717.439026	976.132507	5195.569336	3036.756348	48.836464
717.763794	946.302734	5158.282715	3023.536377	49.317272
718.088440	951.613403	5107.210449	2992.689697	49.116318
718.413208	944.720886	5033.879883	2965.119873	49.408669
718.737793	964.607544	4990.942871	2963.199219	49.637981
719.062378	974.324707	4933.090820	2918.454346	49.109486
719.386841	959.748718	4866.651367	2890.319336	49.414352
719.711304	959.070679	4813.658203	2877.890137	49.780151
720.035767	956.472046	4776.597656	2845.010254	49.436550
720.360168	958.279785	4755.016602	2815.632324	48.919708
720.684570	964.381470	4684.848633	2794.954590	49.202774
721.008789	967.997070	4688.238770	2805.915283	49.403194
721.333069	967.319214	4645.866211	2774.729004	49.133797
721.657227	954.777222	4557.620117	2732.922363	49.353947
721.981445	955.342163	4543.496094	2732.131592	49.518208
722.305481	969.240112	4548.128906	2723.092285	49.005497
722.629578	945.624817	4500.220703	2701.962891	49.410347
722.953552	946.528687	4477.395996	2715.070068	50.088017
723.277588	952.743469	4475.927246	2705.013428	49.735413
723.601440	950.031555	4391.749023	2675.409668	50.131313
723.925354	929.467102	4460.673340	2666.822754	49.200062
724.249146	978.844421	4442.820801	2707.612305	49.907032
724.572937	965.850403	4453.104004	2693.601318	49.544746
724.896667	958.054016	4411.635254	2668.178223	49.517418
725.220398	948.901733	4417.511230	2682.076416	49.967422
725.543945	945.172974	4388.584961	2671.116455	50.123058
725.867615	948.336731	4396.946289	2666.935547	49.834545
726.191101	968.675110	4428.019043	2680.042480	49.470867
726.514648	981.443176	4447.454102	2690.098877	49.297470
726.838074	979.522278	4442.369629	2695.409668	49.551346
727.161499	947.658691	4478.526367	2679.703613	49.054371
727.484863	980.878235	4530.163086	2746.255371	49.738953
727.808228	990.934387	4520.897461	2734.504395	49.393436
728.131470	963.590515	4556.489746	2741.283936	49.477962
728.454712	956.810913	4582.817383	2751.000977	49.481163
728.777832	945.624817	4605.641602	2725.125977	48.620029
729.101013	945.398804	4556.038086	2749.984131	49.979664
729.424011	962.460632	4601.234863	2783.994629	50.058998
729.747070	964.381470	4632.081055	2785.124756	49.642651
730.070068	962.573547	4585.642090	2761.735840	49.658524
730.393005	950.144531	4569.258789	2738.798096	49.422413
730.715881	942.348022	4558.750488	2741.961914	49.762547
731.038757	940.314331	4539.654785	2759.588379	50.544651
731.361572	945.172974	4563.495117	2748.515381	49.839188
731.684326	947.771667	4596.037109	2738.572510	49.086361
732.007019	952.743286	4564.852051	2739.588867	49.468208
732.329712	950.935425	4592.083008	2771.339844	49.995350
732.652283	952.065247	4630.952148	2763.769043	49.245979
732.974854	951.726379	4659.200195	2792.468750	49.649506
733.297363	956.359009	4660.103516	2788.175293	49.458492
733.619873	980.200195	4638.974121	2792.242920	49.525955
733.942261	939.071411	4625.641113	2759.023438	49.367085
734.264648	969.466003	4609.031738	2780.265869	49.753185
734.586975	937.037476	4515.587891	2733.148193	50.191013
734.909302	942.574036	4461.238281	2723.092285	50.602108
735.231506	953.195190	4456.266602	2707.386475	50.075809
735.553711	943.477905	4385.195313	2690.211914	50.751816
735.875854	961.217651	4334.349121	2658.573730	50.319893
736.197937	943.930054	4269.152832	2610.327148	50.113850
736.519958	937.602539	4229.832520	2589.875488	50.187046
736.841980	954.325195	4172.319824	2569.198486	50.182598
737.163940	952.969238	4158.534668	2548.068604	49.760311
737.485840	974.889648	4139.552734	2555.526123	49.946438
737.807678	956.471985	4101.700195	2541.062988	50.380798
738.129517	930.370972	4082.604736	2508.973633	50.078857
738.451233	960.426758	4167.122070	2555.413086	49.739254
738.773010	935.568665	4100.344238	2541.741455	50.751556
739.094666	945.173035	4178.308105	2571.796875	50.311039
739.416260	985.171875	4201.697754	2588.180908	49.836658
739.737854	946.528809	4180.567871	2562.870605	49.979042
740.059448	957.714966	4188.929199	2549.085205	49.249912
740.380859	948.788696	4193.223633	2523.210449	48.526836
740.702332	949.014526	4171.415527	2552.588379	49.763325
741.023682	943.591125	4136.953125	2525.357422	49.532948
741.345032	939.071411	4083.960449	2526.148193	50.465271
741.666321	951.726379	4070.740723	2517.109131	50.188381
741.987549	963.251587	4045.430420	2480.160645	49.215481
742.308777	961.443665	4009.386230	2462.421143	49.245598
742.629944	963.590515	3942.607910	2438.467285	49.508831
742.950989	983.589966	3911.422363	2441.404785	49.791607
743.272095	957.262878	3854.362061	2405.134277	49.976589
743.593140	957.263000	3853.344971	2399.032715	49.783459
743.914063	954.099243	3795.832520	2361.971924	49.542744
744.234985	940.766235	3784.872559	2381.293457	50.649555
744.555847	961.669617	3717.303467	2359.825195	50.738075
744.876648	973.646790	3715.382080	2326.379395	49.338558
745.197449	951.387390	3686.005127	2314.515381	49.847111
745.518188	978.731323	3669.847168	2322.650879	49.939121
745.838867	970.821899	3649.960205	2290.222168	49.247189
746.159485	975.002625	3641.260254	2307.848877	49.989403
746.480042	971.160828	3595.159668	2248.867676	48.693115
746.800537	954.438293	3580.809814	2238.811279	48.902946
747.121094	966.302368	3585.894531	2261.070557	49.426323
747.441528	953.534363	3563.973877	2274.855469	50.616806
747.761902	944.608032	3546.121582	2248.189453	50.108574
748.082275	950.935425	3530.980957	2261.183838	50.783928
748.402588	982.460083	3588.719238	2305.363281	50.758694
748.722839	972.968872	3582.504639	2273.047363	49.820301
749.043030	956.246094	3565.442627	2253.500244	49.718529
749.363159	950.257507	3547.816406	2267.510986	50.711205
749.683289	971.386841	3592.786621	2274.629395	49.715519
750.003357	952.969238	3550.528564	2270.222900	50.711205
750.323303	940.653320	3545.104248	2257.115723	50.546638
750.643311	956.246094	3554.822266	2254.404053	49.956509
750.963257	1012.402710	3579.341064	2306.944824	50.431366
751.283142	972.742859	3549.172607	2251.240234	49.622829
751.602905	944.833862	3471.885986	2220.054443	50.462772
751.922729	983.929016	3511.320313	2224.800293	49.096920
752.242432	963.703613	3459.909424	2215.196045	50.135788
752.562134	958.957886	3453.694580	2186.157471	49.191544
752.881714	954.325317	3428.045410	2185.592285	49.773899
753.201355	966.076355	3422.282715	2182.541504	49.526176
753.520874	948.788696	3408.610840	2156.214355	49.085892
753.840393	950.935425	3417.650391	2182.767578	49.938168
754.159851	963.364624	3394.374268	2187.400146	50.350910
754.479248	963.025574	3373.583496	2168.191895	49.995327
754.798523	969.918091	3392.905029	2165.705811	49.351803
755.117859	969.805176	3385.108643	2168.869629	49.644463
755.437134	948.223633	3350.985596	2155.084717	50.228077
755.756348	978.731445	3348.838623	2172.145996	50.352768
756.075500	974.437805	3343.753906	2138.022949	49.110592
756.394653	960.087891	3315.393066	2144.350342	50.280636
756.713623	966.867188	3283.303467	2148.983398	51.031673
757.032654	988.109558	3312.568359	2139.378418	49.528469
757.351624	955.342102	3277.314941	2129.435791	50.564491
757.670532	949.353638	3269.857666	2123.221191	50.586750
757.989441	954.551270	3268.840332	2130.678467	50.820236
758.308289	945.850769	3310.082764	2134.746094	50.286743
758.627014	967.658203	3308.500732	2138.361816	50.012062
758.945801	958.845032	3316.410156	2114.520508	49.019875
759.264404	957.375977	3325.901611	2144.350342	50.114483
759.583130	952.856323	3383.526611	2189.094971	50.859985
759.901611	957.715027	3362.510498	2175.762207	50.650757
760.220215	986.414734	3371.662598	2184.010498	50.208439
760.538635	978.166321	3395.503418	2195.309326	50.350571
760.857117	952.630249	3352.567139	2165.479736	50.536720
761.175537	991.047241	3392.904785	2198.586426	50.275223
761.493896	952.969360	3355.957031	2167.852539	50.557194
761.812134	966.528320	3377.086426	2152.711670	49.207832
762.130432	995.454224	3387.707031	2203.783691	50.510105
762.448608	970.369995	3382.171143	2180.508301	50.175705
762.766785	987.205688	3402.396484	2182.428223	49.487705
763.084900	991.386414	3490.868408	2247.172607	50.241856
763.402954	956.472046	3622.729248	2269.205811	49.235073
763.720947	948.675659	3790.635254	2371.237305	50.055664
764.038940	956.471863	3976.731934	2472.477051	50.194523
764.356750	983.702942	4203.957031	2576.090332	49.449123
764.674683	964.720398	4291.977539	2632.021240	50.110367
764.992493	939.071289	4403.387207	2666.144531	49.853226
765.310303	955.907104	4422.595703	2687.047852	49.936440
765.627930	937.263367	4311.525391	2652.585449	50.835472
765.945679	989.804504	4201.923340	2601.852783	50.186447
766.263306	975.002625	4047.464355	2507.843994	49.889679
766.580872	967.432129	3895.264893	2440.161621	50.301010
766.898376	953.195435	3798.431152	2359.260010	49.418209
767.215881	957.036804	3649.847656	2288.640381	49.450317
767.533325	970.934937	3580.696777	2260.844482	49.426334
767.850708	951.048462	3457.649658	2203.670654	49.972939
768.168030	964.720520	3409.062988	2175.874756	49.549286
768.485352	963.477539	3303.980957	2116.780762	49.275860
768.802551	952.969238	3261.722168	2089.549561	49.229187
769.119751	947.319641	3198.447021	2078.589355	50.253475
769.436890	942.009155	3179.012451	2073.166016	50.565720
769.753967	946.641785	3125.228760	2062.318848	51.211040
770.071045	950.144531	3106.585449	2005.257813	48.928459
770.388062	981.669250	3074.269531	2047.742920	50.944927
770.704956	956.133118	3040.372314	1995.992554	49.891556
771.021912	977.601379	3017.434814	2005.145142	50.373901
771.338684	955.342102	3014.948730	1974.185791	49.467876
771.655579	957.488953	2962.859863	1973.281494	50.653599
771.972351	983.589966	2975.628174	1988.422485	50.442432
772.289063	950.935425	2939.583984	1952.830078	50.380680
772.605713	972.855774	2916.985596	1950.231079	50.273148
772.922302	963.703491	2909.866699	1942.321899	50.284500
773.238831	973.194946	2918.341309	1941.982788	49.805397
773.555420	1010.029968	2909.641113	1969.326904	50.499649
773.871826	960.200806	2878.116699	1902.774658	49.145733
774.188293	1001.103638	2888.285400	1942.661133	49.892254
774.504639	975.906616	2850.207764	1912.265991	49.957787
774.820984	978.618347	2847.834717	1914.413086	50.063480
775.137207	968.675110	2816.988281	1867.860596	48.648979
775.453552	944.043091	2798.457520	1870.911377	49.981724
775.769592	952.291382	2829.416992	1895.543579	50.249817
776.085815	938.280457	2782.638916	1840.742554	48.930950
776.401855	956.924011	2758.684326	1862.211182	50.244598
776.717896	957.488953	2765.012207	1857.917358	49.815594
777.033875	969.353027	2756.650635	1870.120361	50.398285
777.349854	959.748840	2748.176025	1861.194092	50.404358
777.665710	954.325317	2735.747314	1826.505615	48.959782
777.981567	966.754272	2744.108887	1847.522095	49.554985
778.297363	944.155945	2711.793213	1816.901611	49.373573
778.613098	949.805481	2698.233887	1826.053467	50.116318
778.928772	953.873230	2692.245361	1834.076172	50.633747
779.244385	970.483032	2723.318115	1835.997314	49.377964
779.559998	960.652710	2689.872559	1822.776978	49.856255
779.875488	947.206726	2666.596191	1803.455444	49.799580
780.191040	1000.086731	2714.731201	1866.165771	50.510704
780.506470	950.596558	2684.787842	1822.438232	50.273674
780.821899	959.635742	2669.873291	1827.748413	50.759773
781.137207	950.822388	2658.800293	1812.042969	50.423405
781.452576	936.585632	2655.410400	1795.659180	49.980289
781.767822	965.963379	2670.664551	1826.618774	50.487171
782.083069	938.167480	2627.953613	1803.116577	51.186897
782.398193	938.845337	2622.642578	1786.054932	50.315418
782.713379	945.850769	2589.084473	1776.789429	50.567287
783.028381	960.878784	2591.005127	1810.347900	52.110630
783.343384	943.591125	2560.610840	1755.547119	50.213116
783.658386	945.850891	2562.079590	1740.519287	49.168064
783.973328	948.788696	2533.831787	1747.072876	50.363564
784.288086	980.539185	2548.520508	1791.817383	51.740295
784.602966	959.183960	2506.826904	1731.592773	49.908722
784.917725	957.036926	2531.685059	1765.377563	51.334682
785.232483	950.144531	2498.578369	1723.909424	49.970806
785.547119	980.426147	2494.736572	1721.423584	48.932995
785.861755	967.771118	2480.273926	1724.813477	50.052296
786.176270	941.444153	2455.641602	1701.989014	50.227585
786.490845	954.551147	2468.522949	1697.582397	49.078274
786.805298	919.862671	2407.959473	1698.825439	52.346245
787.119751	962.799500	2459.370605	1706.960693	49.724415
787.434143	954.890015	2436.771973	1701.311279	50.369820
787.748474	957.036926	2481.629639	1711.593506	49.492336
788.062744	960.200867	2455.302490	1709.559814	50.120941
788.377014	951.726379	2488.521973	1718.260010	49.878696
788.691162	961.669739	2511.459473	1741.310181	50.306206
789.005310	972.177856	2575.299561	1767.298096	49.598244
789.319397	958.392883	2570.215088	1775.998413	50.725540
789.633423	960.426758	2592.926025	1750.236572	48.380409
789.947449	961.330750	2595.186035	1783.230225	50.304302
790.261414	942.687012	2569.197754	1760.518799	50.281364
790.575256	959.183777	2549.650391	1731.254150	48.543640
790.889160	960.652710	2541.515381	1726.847046	48.466850
791.202881	952.178345	2502.419922	1716.677979	49.314873
791.516663	950.031616	2441.291748	1705.604858	50.666763
791.830322	957.149902	2448.523193	1706.734741	50.261383
792.144043	941.105286	2414.399658	1678.599976	50.057522
792.457581	985.397949	2415.981934	1697.921509	49.806484
792.771118	957.714966	2352.593506	1665.041016	50.708790
793.084656	1001.329468	2380.728516	1684.136475	49.500324
793.398071	972.064758	2349.768799	1651.030029	49.282372
793.711487	961.217773	2294.063965	1633.177490	50.415398
794.024841	936.133606	2287.623535	1622.895264	50.815151
794.338135	965.850464	2284.346924	1626.962891	50.141388
794.651428	946.189819	2240.279785	1619.053345	51.995113
794.964600	973.194702	2285.137939	1615.550781	48.962185
795.277771	963.477539	2255.872559	1622.895386	51.022934
795.590881	967.884155	2268.754150	1618.940674	50.047779
795.903931	990.934448	2294.516113	1648.318359	50.429054
796.216980	945.398926	2269.883789	1619.166382	50.870152
796.529907	971.273743	2339.825439	1660.860107	50.388039
796.842834	957.601929	2317.905273	1647.640381	50.726807
797.155701	977.940430	2322.876953	1660.182373	50.726704
797.468506	973.646790	2350.785645	1663.233154	50.073841
797.781250	978.618347	2358.017090	1672.611328	50.311268
798.093994	952.743347	2318.470215	1648.544312	50.947304
798.406677	953.873230	2298.357666	1635.662964	50.710129
798.719238	956.697937	2304.798340	1613.968994	48.755352
799.031921	963.251465	2273.047852	1597.697998	48.438560
799.344360	969.805054	2266.042480	1620.070435	50.165607
799.656860	979.522278	2260.957764	1608.658447	49.096199
799.969299	956.698120	2229.206787	1593.743408	50.062157
800.281677	961.104675	2241.862061	1576.794678	48.072338
800.593933	959.748718	2234.517334	1571.258301	47.970245
800.906250	949.466492	2185.365723	1551.936646	48.747517
801.218445	948.788574	2169.886230	1557.812134	49.875092
801.530640	964.155396	2166.835693	1548.772705	48.609535
801.842712	961.104797	2127.740723	1554.535278	50.866806
802.154846	964.155396	2152.485840	1552.501587	49.510319
802.466797	951.839478	2143.333252	1540.976563	49.445251
802.778870	954.890259	2120.735107	1534.987915	49.757706
803.090759	961.104675	2140.282715	1552.840576	50.182068
803.402649	950.031616	2089.436523	1523.462646	50.327240
803.714478	945.172729	2086.837891	1526.852539	50.950123
804.026245	957.488892	2105.255371	1529.112427	49.803123
804.337952	951.274536	2080.058594	1534.874756	51.701672
804.649658	971.386902	2084.013184	1531.598145	50.350353
804.961243	963.590637	2073.279053	1534.761963	51.471321
805.272888	965.737305	2088.758545	1523.349731	49.652882
805.584412	948.336609	2089.549561	1520.299072	50.118824
805.895874	954.777161	2078.702637	1520.299072	50.316669
806.207336	944.607910	2117.797363	1528.095459	49.735149
806.518677	962.234680	2109.888184	1531.372314	49.591415
806.830017	956.585083	2080.623291	1521.316040	50.241261
807.141357	942.574219	2106.724365	1520.072998	49.606899
807.452576	967.771301	2096.781006	1528.208496	49.639713
807.763733	959.522827	2081.979004	1537.247803	51.469715
808.074890	941.218262	2074.635010	1502.785522	49.546406
808.385925	963.138550	2106.724121	1527.643555	49.362724
808.697021	959.635742	2065.256348	1517.474243	50.454784
809.007935	977.714355	2072.035889	1528.886108	50.366528
809.318909	987.092651	2057.912109	1520.299072	49.794239
809.629822	961.443665	2051.583984	1506.401123	49.989658
809.940674	960.313660	2031.133179	1481.429932	48.665180
810.251404	955.568176	2022.093750	1480.639038	49.231903
810.562195	974.550598	2030.229126	1514.988525	51.193420
810.872864	944.494995	1992.829102	1452.843140	48.491043
811.183533	965.285461	1987.292603	1463.916260	48.789364
811.494080	962.460571	1979.835205	1454.763916	48.389584
811.804626	952.178345	1949.101318	1442.561035	49.189629
812.115112	942.009094	1943.338867	1443.125854	50.045128
812.425598	943.477905	1916.333984	1432.617554	50.278728
812.735962	936.246460	1913.509033	1420.640625	49.566429
813.046326	948.901550	1915.203857	1435.103516	50.315720
813.356628	975.680542	1956.558838	1455.102905	48.876846
813.666870	958.731750	1908.989502	1421.431519	48.692028
813.976990	961.217651	1897.803345	1435.781494	50.669559
814.287170	956.472046	1899.498047	1410.810425	48.178776
814.597290	962.008606	1914.639038	1432.843750	49.424744
814.907349	941.218262	1888.650635	1404.482788	48.896843
815.217346	989.013489	1937.350342	1453.746948	49.005104
815.527283	960.539856	1896.673218	1430.470947	50.199162
815.837158	942.348022	1875.205078	1403.578857	49.442822
816.147034	959.296875	1886.278076	1433.182495	51.121384
816.456787	965.285461	1902.661865	1443.803711	51.048676
816.766541	967.997192	1899.497803	1453.295166	52.098515
817.076233	966.867188	1929.441040	1442.221924	49.383717
817.385925	989.578613	1887.973267	1434.312500	49.503178
817.695496	998.504761	1949.214478	1488.209595	51.509396
818.005066	969.240234	1919.497681	1460.187622	51.664673
818.314514	965.059387	1917.915649	1440.075195	49.851780
818.623962	949.579712	1887.181885	1425.160400	50.723080
818.933350	969.579102	1921.644287	1438.832153	49.287910
819.242737	986.753784	1953.055908	1465.611450	49.555687
819.552002	966.641235	1973.055420	1461.430420	49.163574
819.861328	969.240112	2016.444336	1479.961182	48.769958
820.170471	953.647095	2044.127197	1487.644531	48.969021
820.479675	969.353027	2095.989746	1523.123901	49.152569
820.788696	967.545105	2150.564941	1560.185059	50.095524
821.097839	963.816589	2233.613525	1602.330688	50.284744
821.406738	980.426147	2368.412598	1674.984131	50.040688
821.715698	958.505859	2435.867920	1705.831055	50.585110
822.024597	960.652649	2722.301514	1843.454468	50.112244
822.333435	987.318542	3276.185059	2119.605225	49.469318
822.642273	954.325195	4062.153076	2519.707764	50.369022
822.950989	966.189148	4827.104492	2899.810547	50.081944
823.259705	961.217773	5504.375000	3247.372314	50.320831
823.568359	968.336060	6007.187012	3511.772217	50.476509
823.876953	988.222534	6433.051758	3709.168457	49.973026
824.185486	941.557251	6535.986328	3777.188721	50.686695
824.494019	965.511353	6444.351074	3690.411377	49.734982
824.802429	954.099243	5915.438477	3468.383301	50.677528
825.110840	953.308289	5387.768066	3210.197998	50.894352
825.419189	964.268433	5030.941406	3024.553223	50.662663
825.727478	990.595520	4722.135742	2857.891113	50.040882
826.035767	960.313782	4420.674805	2741.396973	51.471024
826.343933	959.861816	4257.967285	2636.653809	50.841068
826.652100	960.539734	4011.081299	2504.001953	50.596333
826.960144	949.918335	3877.638184	2433.156006	50.661873
827.268250	958.279907	3796.510498	2409.541016	51.132603
827.576233	980.765259	3829.843262	2453.946777	51.707306
827.884155	967.545288	3816.848877	2410.445313	50.640442
828.192017	952.856323	3788.262207	2394.400146	50.840832
828.499878	958.279968	3747.246094	2360.729004	50.285622
828.807678	953.421204	3743.178223	2370.220215	50.785751
829.115479	954.890259	3677.643799	2332.594238	50.599659
829.423096	946.867798	3483.750000	2223.218262	50.311771
829.730835	947.206726	3267.484863	2124.464111	50.737770
830.038330	963.703491	3047.264648	2010.681641	50.249458
830.345947	956.359070	2892.014648	1925.938232	50.090481
830.653442	950.935547	2743.204834	1842.324463	49.735210
830.960876	951.500305	2627.614746	1793.851196	50.256165
831.268250	952.517456	2524.679199	1739.502563	50.057514
831.575623	956.245972	2401.518555	1673.176392	49.605206
831.882874	945.963867	2310.899414	1625.380859	49.776489
832.190125	949.240540	2226.495117	1589.562744	50.132698
832.497314	969.127136	2155.762451	1553.970459	49.285854
832.804504	1007.770142	2086.724854	1546.625732	49.942375
833.111572	965.737488	2024.127563	1494.875977	49.994656
833.418640	945.172852	2065.708496	1499.169678	49.440357
833.725586	959.974915	2109.097168	1533.180054	49.881996
834.032532	964.946411	2208.755371	1565.834595	48.310329
834.339417	964.946411	2372.706055	1670.690430	50.132423
834.646301	950.483521	2461.969238	1711.932373	50.377510
834.953003	972.290833	2588.745361	1776.224365	49.734371
835.259827	976.132446	2629.648438	1788.427490	49.125320
835.566467	975.680542	2672.811035	1829.443359	50.306255
835.873108	966.754272	2644.450439	1815.771484	50.606136
836.179688	952.856323	2565.017334	1770.010010	50.686852
836.486267	939.297363	2496.431641	1710.463623	49.524712
836.792664	940.427246	2384.795898	1690.576904	51.936165
837.099121	963.138489	2309.882813	1652.498779	51.187168
837.405518	977.827332	2255.194824	1619.618408	50.243263
837.711792	961.895630	2158.361084	1572.839966	51.062431
838.018127	945.850891	2062.883789	1515.101440	50.960945
838.324341	955.907104	2023.788696	1504.819336	51.401974
838.630554	942.687134	1961.417358	1465.837158	51.353146
838.936646	946.867798	1899.498047	1435.555420	51.298771
839.242737	954.890137	1841.759521	1406.629639	50.936420
839.548767	970.596008	1796.676025	1384.031494	50.047874
839.854797	978.957336	1753.061279	1366.517822	50.065689
840.160645	965.624207	1751.705078	1349.004150	48.771057
840.466553	948.562683	1732.722900	1331.264404	48.804020
840.772400	965.737183	1735.773804	1357.817505	50.917099
841.078186	962.347534	1749.784546	1372.506226	52.087811
841.383850	964.155579	1751.931396	1360.077271	50.258167
841.689575	951.387512	1770.801025	1379.624512	52.261402
841.995178	962.912476	1749.558594	1357.817383	50.201088
842.300781	944.269043	1747.863525	1342.902588	49.606308
842.606262	964.155457	1722.892334	1335.106201	48.890564
842.911743	960.087585	1685.040405	1303.129639	47.319225
843.217163	949.353638	1653.628662	1299.965820	49.783417
843.522583	947.997681	1630.578735	1291.265381	50.289661
843.827881	947.884766	1609.901367	1268.441284	48.421219
844.133179	947.771790	1587.189819	1271.265991	50.591972
844.438354	949.918579	1562.105835	1247.424805	48.597260
844.743530	957.827942	1553.631470	1261.322876	50.938763
845.048645	973.307800	1559.054932	1256.238159	48.302475
845.353760	950.596497	1502.559570	1207.990723	46.632507
845.658752	992.742188	1528.547607	1236.012817	45.402794
845.963745	1004.380371	1494.762939	1248.215576	49.723465
846.268555	970.822083	1434.651611	1205.731079	50.645546
846.573486	970.256958	1433.860596	1178.725952	44.967075
846.878296	1000.764832	1449.340576	1227.312256	50.503716
847.183044	976.584656	1402.787964	1190.138184	50.106022
847.487732	959.296875	1422.109375	1187.313354	49.267570
847.792419	953.308411	1420.075562	1196.578735	52.118134
848.097046	974.550659	1403.353027	1178.613037	47.588913
848.401611	961.669739	1392.166870	1156.466675	45.249298
848.706055	962.121704	1379.737793	1190.929321	54.788986
849.010559	944.946899	1355.331543	1141.664917	47.935032
849.314941	972.855774	1384.596436	1191.833130	53.183319
849.619324	942.122192	1362.450073	1152.625122	50.080650
849.923584	952.178406	1341.659546	1137.936035	47.693615
850.227844	958.844910	1336.801025	1133.077393	46.098602
850.532043	944.720886	1349.117065	1119.066528	43.112583
850.836243	955.116333	1348.665039	1147.427490	48.865910
851.140320	966.415222	1356.913330	1140.647949	44.618073
851.444397	962.008606	1355.783569	1148.444336	47.345757
851.748352	971.273926	1341.094727	1157.822632	50.443001
852.052307	965.059448	1358.834473	1153.416016	47.833549
852.356140	957.601868	1339.851807	1129.010010	44.841900
852.660095	971.838867	1343.693481	1124.490356	41.051392
852.963806	982.686035	1360.642334	1162.003174	47.443882
853.267578	1032.063232	1400.641113	1225.504639	52.483185
853.571228	989.804565	1334.992920	1147.540283	45.695549
853.874939	949.466614	1327.761841	1143.698975	51.344120
854.178467	951.613586	1321.999268	1134.772339	49.450817
854.482056	963.816406	1335.784180	1152.625122	50.759430
854.785461	968.562317	1344.597412	1159.856445	50.871349
855.088989	963.138550	1329.343506	1150.591309	51.187935
855.392273	971.386902	1322.338135	1139.292114	47.842892
855.695679	951.274414	1326.744873	1118.840576	44.628323
855.998901	997.826782	1352.507080	1179.291016	51.162762
856.302185	967.884155	1305.728271	1119.970459	45.016708
856.605286	958.957886	1320.982178	1164.489258	56.772812
856.908508	958.844849	1314.993896	1117.597778	44.574856
857.211548	961.330688	1307.310303	1126.863037	47.844540
857.514587	952.630371	1299.174927	1124.716187	49.657631
857.817566	952.517395	1297.931885	1125.846191	50.179943
858.120483	966.415344	1307.310181	1114.546875	43.453732
858.423340	976.471558	1321.999268	1120.874512	41.792004
858.726196	964.155579	1304.711548	1123.699341	46.848030
859.028931	976.358521	1345.614258	1151.382202	47.399040
859.331665	950.596497	1284.712036	1115.563843	49.374340
859.634277	970.031067	1319.287231	1131.269653	46.166283
859.936890	970.934753	1300.304932	1143.924805	52.521469
860.239441	968.562195	1303.807495	1109.688232	42.096352
860.541992	958.279907	1312.168701	1134.433472	49.776531
860.844421	959.296753	1283.695068	1142.568970	56.496044
861.146912	951.726379	1290.587646	1131.043701	52.917622
861.449219	947.206726	1269.345215	1113.530029	51.630993
861.751526	984.719910	1278.497314	1129.235962	49.192364
862.053772	1002.685547	1309.683105	1149.913330	47.957314
862.355957	975.115601	1306.406372	1138.840088	49.420177
862.658081	962.912476	1301.208618	1118.162598	45.891781
862.960266	946.528931	1276.124756	1111.722046	50.119904
863.262207	949.692566	1287.084839	1120.196655	50.535862
863.564331	966.076294	1285.615845	1136.015381	53.182487
863.866211	967.319153	1280.079346	1106.863647	44.617088
864.168091	949.918579	1274.203857	1100.875122	46.550537
864.469910	944.833862	1260.870728	1086.412231	44.798054
864.771729	957.827820	1266.859375	1098.841064	45.630695
865.073425	946.754761	1289.796753	1105.055664	46.146217
865.375122	958.505859	1273.525879	1104.829834	46.449104
865.676819	935.568665	1276.576660	1113.191162	52.087486
865.978333	955.229187	1264.712402	1109.575317	49.872215
866.279907	991.499329	1319.174438	1143.585693	46.413769
866.581360	967.093140	1285.954834	1111.157227	45.180744
866.882874	940.314148	1293.073364	1105.733643	46.893032
867.184143	951.048523	1258.610962	1116.128784	53.673740
867.485535	945.963745	1275.107666	1083.248413	41.709618
867.786743	981.669128	1302.903564	1116.129028	41.857250
868.088013	995.002075	1312.733887	1162.455322	52.702702
868.389160	974.324585	1282.452148	1126.524048	49.394951
868.690308	942.122192	1276.576416	1097.146362	46.351387
868.991333	939.636353	1274.768677	1111.496216	51.281197
869.292358	950.370483	1283.921021	1110.592285	48.035240
869.593323	987.883606	1320.191284	1155.788818	50.527035
869.894287	941.557251	1277.706543	1123.134277	54.016781
870.195068	973.194641	1304.259644	1143.698730	51.501694
870.495911	963.816284	1276.576538	1129.122803	52.854069
870.796692	960.313843	1267.198364	1112.287109	49.521320
871.097412	966.076294	1284.033936	1113.078125	46.233150
871.398010	957.827942	1294.429321	1096.807373	41.289024
871.698669	971.499878	1267.198486	1101.213989	43.867001
871.999207	962.912598	1267.085205	1111.044189	48.699844
872.299683	947.093750	1276.463623	1098.163330	45.866241
872.600159	963.025574	1278.949585	1119.970459	49.678047
872.900574	950.031555	1258.158936	1108.332397	51.375130
873.200867	962.008667	1260.870850	1110.140137	49.565144
873.501160	958.279907	1270.701050	1101.214111	45.750488
873.801392	960.200806	1278.949463	1098.841064	43.495167
874.101624	955.794128	1293.186523	1127.879883	51.004635
874.401733	956.810913	1306.632202	1144.150757	53.553013
874.701843	969.353027	1287.649658	1104.716553	42.527477
875.001831	968.223145	1295.559204	1129.235840	49.188805
875.301819	958.053894	1286.293701	1106.298584	45.163532
875.601746	976.019531	1309.005127	1130.591675	46.420071
875.901672	966.302246	1308.440308	1134.433472	49.141338
876.201477	947.771667	1293.638184	1115.338135	48.448307
876.501282	959.183899	1282.791138	1117.032715	48.777901
876.800964	966.754395	1305.389160	1118.275757	44.744774
877.100647	956.698242	1282.791138	1107.089600	46.119175
877.400208	970.256958	1282.113037	1103.360840	42.681190
877.699829	987.092773	1343.693481	1167.201050	50.506989
877.999329	947.884766	1299.852783	1118.049683	48.346699
878.298767	963.364441	1295.220093	1107.202515	43.343567
878.598206	949.918579	1314.767822	1109.349487	43.697750
878.897583	942.912903	1298.723022	1102.682861	44.903152
879.196838	951.048462	1303.468506	1117.484863	47.226711
879.496155	947.658569	1309.909180	1112.400146	45.477238
879.795288	974.550659	1340.190796	1148.670288	47.620491
880.094482	963.590637	1351.263916	1156.240967	49.693993
880.393555	951.839478	1341.659424	1144.263672	49.362328
880.692627	958.505737	1373.297119	1168.104980	50.531242
880.991577	948.675781	1399.511230	1175.110229	50.225521
881.290588	947.206665	1468.661987	1208.668823	50.140854
881.589355	944.268921	1561.427734	1240.306274	47.967777
881.888306	973.759766	1743.683228	1375.331177	52.157314
882.187012	959.183777	1987.179321	1466.627930	49.362484
882.485840	956.245972	2202.879883	1600.974976	51.717590
882.784424	965.737305	2464.906982	1725.604492	50.685871
883.083069	970.257019	2685.579102	1837.917725	50.582962
883.381592	979.974304	2881.393311	1955.202759	51.289509
883.680176	953.986145	3010.542480	2004.353882	51.074100
883.978638	947.658569	3078.901611	2045.934937	51.532196
884.277039	954.664246	3086.585449	2044.014282	51.097111
884.575378	978.166321	3034.609131	2017.912842	50.560440
884.873779	925.625366	2884.557129	1935.881226	51.571774
885.171997	961.330750	2786.480225	1891.927979	50.987453
885.470276	989.013550	2724.335449	1899.385376	52.461266
885.768311	947.884644	2585.920410	1771.931030	50.306984
886.066528	949.014526	2474.059326	1727.412109	51.040966
886.364502	939.523438	2358.695068	1656.453735	50.517517
886.662537	929.354126	2213.952881	1596.907471	51.965904
886.960510	950.144531	2107.515137	1538.603760	50.844494
887.258362	954.551270	1974.637329	1468.888062	50.420921
887.556213	946.867798	1834.302002	1382.223389	49.057789
887.854004	950.822449	1718.711670	1330.699463	49.470287
888.151733	975.680542	1661.876953	1316.575439	49.678909
888.449402	980.765320	1605.042480	1294.316162	50.226223
888.747009	956.698059	1524.027832	1235.108765	49.073875
889.044617	961.104797	1479.509033	1216.804199	49.324326
889.342163	952.404419	1436.459351	1186.183594	48.296001
889.639648	952.743347	1401.093018	1181.098877	50.932465
889.937012	937.263672	1379.059814	1154.545898	49.181557
890.234436	971.500000	1390.697998	1175.336304	48.625305
890.531738	949.014648	1341.885620	1169.799683	56.197849
890.829041	948.788574	1323.241943	1125.168213	47.103233
891.126221	942.800110	1330.699463	1122.117432	46.227795
891.423401	951.952454	1286.519775	1133.303589	54.204678
891.720459	950.596497	1290.474609	1109.688232	46.808468
892.017578	960.087708	1299.287842	1139.179077	52.798141
892.314514	956.020020	1257.593994	1118.388672	53.840405
892.611511	961.895630	1281.548340	1126.297974	51.431549
>>>>>End Processed Spectral Data<<<<<
