Jaz Data File
++++++++++++++++++++++++++++++++++++
Date: Mon Apr 25 12:43:55 2016
User: jaz
Dark Spectrum Present: Yes
Reference Spectrum Present: Yes
Processed Spectrum Present: Yes
Spectrometers: JAZA3098
Integration Time (usec): 938000 (JAZA3098)
Spectra Averaged: 1 (JAZA3098)
Boxcar Smoothing: 0 (JAZA3098)
Correct for Electrical Dark: No (JAZA3098)
Strobe/Lamp Enabled: Yes (JAZA3098)
Correct for Detector Non-linearity: No (JAZA3098)
Correct for Stray Light: No (JAZA3098)
Number of Pixels in Processed Spectrum: 2048
>>>>>Begin Processed Spectral Data<<<<<
W	D	R	S	P
190.313904	0.000000	0.000000	0.000000	0.000000
190.695511	0.000000	0.000000	0.000000	0.000000
191.077087	1114.094971	1132.173584	1125.394165	62.500340
191.458633	1211.267578	1175.110352	1177.370239	93.749832
191.840149	1240.645386	1163.811279	1184.149658	73.529488
192.221634	1215.787231	1145.732544	1211.267578	6.451607
192.603088	1297.140991	1249.684692	1279.062378	38.095287
192.984528	1324.259033	1306.180420	1346.857300	-125.000000
193.365921	1331.038452	1294.881226	1351.376953	-56.250168
193.747284	1209.007813	1254.204346	1236.125732	60.000000
194.128616	1319.739380	1303.920532	1279.062378	257.142639
194.509918	1303.920532	1346.857300	1317.479492	31.578903
194.891190	1281.322266	1267.763306	1306.180420	-183.333786
195.272446	1274.542725	1260.983765	1272.282959	16.666216
195.653656	1464.368286	1367.195679	1398.833252	67.441879
196.034836	1272.282959	1283.582031	1349.117065	680.003662
196.416000	1236.125732	1222.566772	1254.204346	-133.333328
196.797104	1326.518799	1315.219727	1267.763306	520.002808
197.178192	1317.479492	1396.573486	1333.298340	20.000061
197.559265	1308.440186	1258.723999	1301.660645	13.636486
197.940292	1186.409546	1272.282959	1279.062378	107.894669
198.321304	1258.723999	1312.959839	1285.841919	50.000000
198.702271	1279.062378	1346.857300	1263.243652	-23.333200
199.083221	1288.101685	1281.322266	1233.865845	800.007202
199.464111	1290.361572	1301.660645	1213.527466	-680.003662
199.844986	1274.542725	1358.156372	1328.778687	64.864960
200.225830	1270.023071	1238.385498	1337.817993	-214.286102
200.606659	1193.188965	1321.999146	1220.306885	21.052622
200.987427	1367.195679	1505.045166	1371.715332	3.278687
201.368195	1335.558105	1425.951172	1362.676025	30.000000
201.748917	1351.376953	1383.014526	1333.298340	-57.142857
202.129608	1220.306885	1360.416260	1301.660645	58.064465
202.510284	1247.424805	1321.999146	1288.101685	54.545410
202.890915	1279.062378	1274.542725	1202.228271	1700.000000
203.271515	1256.464111	1272.282959	1270.023071	85.713959
203.652100	1324.259033	1346.857300	1238.385498	-380.000549
204.032623	1263.243652	1355.896606	1236.125732	-29.268274
204.413147	1141.212891	1279.062378	1290.361572	108.196762
204.793625	1328.778687	1378.494873	1274.542725	-109.091156
205.174088	1199.968506	1240.645386	1263.243652	155.555557
205.554504	1247.424805	1285.841919	1157.031738	-235.293747
205.934906	1236.125732	1233.865845	1238.385498	-99.994598
206.315247	1242.905151	1285.841919	1306.180420	147.368500
206.695587	1211.267578	1297.140991	1283.582031	84.210526
207.075882	1333.298340	1335.558105	1324.259033	-400.010803
207.456146	1188.669312	1290.361572	1249.684692	60.000023
207.836380	1331.038452	1292.621338	1299.400879	82.352814
208.216599	1251.944458	1270.023071	1328.778687	425.000671
208.596771	1186.409546	1256.464111	1267.763306	116.129135
208.976913	1319.739380	1337.817993	1448.549561	712.500366
209.357025	1509.564819	1475.667480	1423.691406	253.333786
209.737106	1297.140991	1270.023071	1202.228271	350.000000
210.117157	1292.621338	1324.259033	1260.983765	-99.999611
210.497177	1301.660645	1333.298340	1308.440186	21.428682
210.877167	1270.023071	1331.038452	1184.149658	-140.740601
211.257126	1231.606079	1245.165039	1290.361572	433.333344
211.637070	1337.817993	1419.171753	1360.416260	27.777779
212.016968	1238.385498	1306.180420	1306.180420	100.000000
212.396835	1256.464111	1270.023071	1263.243652	50.000450
212.776672	1206.747925	1258.723999	1206.747925	0.000000
213.156464	1184.149658	1215.787231	1123.134277	-192.857330
213.536255	1193.188965	1260.983765	1218.047119	36.666756
213.916000	1281.322266	1351.376953	1251.944458	-41.935535
214.295700	1202.228271	1319.739380	1272.282959	59.615376
214.675400	1335.558105	1315.219727	1310.700073	122.222290
215.055038	1224.826538	1319.739380	1249.684692	26.190506
215.434662	1247.424805	1242.905151	1274.542725	-600.000000
215.814240	1331.038452	1396.573486	1369.455566	58.620728
216.193787	1195.448853	1260.983765	1328.778687	203.448563
216.573334	1288.101685	1371.715332	1283.582031	-5.405401
216.952820	1256.464111	1353.636719	1211.267578	-46.511600
217.332275	1236.125732	1184.149658	1231.606079	8.695642
217.711716	1376.234985	1412.392212	1362.676025	-37.500000
218.091125	1179.630005	1227.086426	1267.763306	185.714172
218.470505	1459.848633	1534.422974	1423.691406	-48.484810
218.849854	1249.684692	1317.479492	1254.204346	6.666667
219.229156	1242.905151	1342.337646	1270.023071	27.272694
219.608444	1254.204346	1279.062378	1218.047119	-145.454895
219.987671	1367.195679	1373.975220	1346.857300	-299.996399
220.366898	1238.385498	1412.392212	1274.542725	20.779213
220.746094	1340.077759	1412.392212	1367.195679	37.500000
221.125244	1380.754639	1362.676025	1340.077759	225.000000
221.504364	1326.518799	1369.455566	1333.298340	15.789594
221.883469	1285.841919	1290.361572	1267.763306	-400.000000
222.262512	1333.298340	1238.385498	1251.944458	85.714302
222.641556	1256.464111	1206.747925	1251.944458	9.090909
223.020554	1236.125732	1321.999146	1308.440186	84.210526
223.399521	1288.101685	1308.440186	1310.700073	111.111382
223.778473	1220.306885	1247.424805	1238.385498	66.666664
224.157364	1181.889893	1220.306885	1222.566772	105.882523
224.536240	1245.165039	1349.117065	1168.330933	-73.913040
224.915085	1222.566772	1260.983765	1254.204346	82.353073
225.293900	1301.660645	1236.125732	1299.400879	3.448186
225.672684	1224.826538	1276.802612	1254.204346	56.521790
226.051437	1274.542725	1303.920532	1209.007813	-223.076248
226.430161	1297.140991	1349.117065	1328.778687	60.869728
226.808838	1254.204346	1324.259033	1353.636719	141.935364
227.187500	1439.510132	1464.368286	1398.833252	-163.635956
227.566132	1301.660645	1242.905151	1229.346191	123.076920
227.944717	1328.778687	1294.881226	1238.385498	266.666534
228.323288	1288.101685	1346.857300	1319.739380	53.846249
228.701813	1401.093140	1376.234985	1260.983765	563.635498
229.080307	1213.527466	1317.479492	1297.140991	80.434723
229.458786	1294.881226	1335.558105	1297.140991	5.555406
229.837234	1231.606079	1324.259033	1283.582031	56.097458
230.215637	1274.542725	1392.053833	1299.400879	21.153875
230.594009	1312.959839	1401.093140	1288.101685	-28.205177
230.972351	1211.267578	1371.715332	1310.700073	61.971882
231.350662	1297.140991	1398.833252	1331.038452	33.333374
231.728958	1312.959839	1398.833252	1218.047119	-110.526314
232.107193	1317.479492	1439.510132	1279.062378	-31.481531
232.485413	1195.448853	1407.872559	1190.929199	-2.127660
232.863602	1209.007813	1342.337646	1315.219727	79.661026
233.241760	1233.865845	1373.975220	1249.684692	11.290357
233.619873	1227.086426	1369.455566	1231.606079	3.174602
233.997986	1403.352905	1428.211060	1333.298340	-281.817230
234.376038	1188.669312	1410.132446	1263.243652	33.673477
234.754074	1247.424805	1459.848633	1310.700073	29.787275
235.132065	1204.488159	1373.975220	1254.204346	29.333323
235.510025	1294.881226	1498.265747	1283.582031	-5.555582
235.887970	1193.188965	1358.156372	1260.983765	41.095875
236.265869	1303.920532	1455.328979	1247.424805	-37.313457
236.643738	1283.582031	1450.809326	1236.125732	-28.378321
237.021576	1179.630005	1346.857300	1184.149658	2.702701
237.399384	1227.086426	1396.573486	1254.204346	15.999994
237.777161	1297.140991	1509.564819	1267.763306	-13.829751
238.154892	1188.669312	1362.676025	1213.527466	14.285745
238.532623	1233.865845	1369.455566	1242.905151	6.666661
238.910309	1209.007813	1419.171753	1263.243652	25.806444
239.287949	1211.267578	1396.573486	1251.944458	21.951204
239.665573	1224.826538	1471.147827	1272.282959	19.266066
240.043167	1265.503418	1446.289673	1306.180420	22.500051
240.420715	1179.630005	1414.652100	1245.165039	27.884626
240.798233	1260.983765	1432.730713	1315.219727	31.578997
241.175735	1251.944458	1482.446899	1317.479492	28.431383
241.553207	1213.527466	1416.911865	1312.959839	48.888889
241.930634	1215.787231	1403.352905	1297.140991	43.373482
242.308014	1231.606079	1428.211060	1288.101685	28.735592
242.685394	1188.669312	1568.320313	1319.739380	34.523830
243.062729	1299.400879	1660.973267	1358.156372	16.249994
243.440033	1215.787231	1642.894653	1376.234985	37.566135
243.817307	1292.621338	1753.626221	1392.053833	21.568642
244.194534	1276.802612	1663.233154	1419.171753	36.842102
244.571747	1260.983765	1740.067261	1312.959839	10.849064
244.948929	1227.086426	1742.327148	1306.180420	15.350882
245.326065	1229.346191	1690.351074	1297.140991	14.705874
245.703186	1242.905151	1688.091187	1355.896606	25.380728
246.080261	1222.566772	1577.359619	1206.747925	-4.458615
246.457306	1195.448853	1636.115234	1297.140991	23.076900
246.834320	1247.424805	1719.728760	1328.778687	17.224899
247.211304	1220.306885	1676.792114	1324.259033	22.772291
247.588257	1279.062378	1771.704834	1373.975220	19.266069
247.965195	1317.479492	1952.491089	1389.793945	11.387895
248.342087	1206.747925	1993.167969	1358.156372	19.252872
248.718933	1272.282959	2040.624390	1258.723999	-1.764705
249.095764	1184.149658	2085.820801	1292.621338	12.030071
249.472549	1260.983765	2194.292725	1355.896606	10.169498
249.849319	1292.621338	2049.663574	1247.424805	-5.970147
250.226044	1256.464111	1932.152588	1362.676025	15.719066
250.602737	1231.606079	1832.720215	1319.739380	14.661658
250.979401	1265.503418	1828.200562	1297.140991	5.622487
251.356033	1260.983765	1893.735596	1337.817993	12.142869
251.732635	1274.542725	1778.484375	1281.322266	1.345303
252.109207	1308.440186	1764.925415	1344.597412	7.920788
252.485748	1256.464111	1776.224487	1290.361572	6.521748
252.862244	1242.905151	1649.674194	1181.889893	-14.999976
253.238724	1279.062378	1737.807495	1260.983765	-3.940884
253.615158	1179.630005	1773.964722	1229.346191	8.365015
253.991577	1272.282959	1767.185181	1326.518799	10.958900
254.367950	1220.306885	1825.940674	1260.983765	6.716415
254.744308	1412.392212	1918.593628	1439.510132	5.357140
255.120621	1242.905151	1710.689453	1367.195679	26.570051
255.496902	1188.669312	1656.453613	1321.999146	28.502417
255.873154	1159.291626	1679.051880	1283.582031	23.913027
256.249390	1206.747925	1627.075928	1184.149658	-5.376341
256.625549	1247.424805	1670.012573	1224.826538	-5.347591
257.001709	1355.896606	1814.641602	1389.793945	7.389146
257.377838	1306.180420	1746.846802	1312.959839	1.538447
257.753937	1283.582031	1699.390381	1288.101685	1.086956
258.129974	1220.306885	1792.043335	1283.582031	11.067187
258.506012	1260.983765	1719.728760	1272.282959	2.463067
258.881989	1279.062378	1875.656860	1362.676025	14.015156
259.257935	1297.140991	2029.325195	1441.770020	19.753094
259.633911	1204.488159	2067.742188	1328.778687	14.397909
260.009766	1249.684692	2133.277344	1312.959839	7.161122
260.385651	1335.558105	2388.637695	1509.564819	16.523605
260.761475	1263.243652	2424.794922	1358.156372	8.171204
261.137299	1276.802612	2436.094238	1362.676025	7.407404
261.513062	1220.306885	2451.912842	1376.234985	12.660551
261.888763	1315.219727	2686.935059	1446.289673	9.555185
262.264496	1270.023071	2558.124756	1387.534180	9.122813
262.640137	1195.448853	2501.629150	1364.935913	12.975779
263.015808	1251.944458	2298.244629	1321.999146	6.695467
263.391388	1324.259033	2370.559082	1364.935913	3.887688
263.766998	1421.431519	2237.229248	1475.667480	6.648212
264.142517	1351.376953	2151.355957	1364.935913	1.694914
264.518036	1209.007813	2067.742188	1290.361572	9.473681
264.893524	1344.597412	2099.379883	1378.494873	4.491024
265.268951	1349.117065	2099.379883	1412.392212	8.433731
265.644379	1324.259033	1981.868774	1245.165039	-12.027497
266.019745	1245.165039	2004.467041	1288.101685	5.654752
266.395111	1231.606079	2074.521729	1315.219727	9.919575
266.770386	1263.243652	2060.962891	1351.376953	11.048161
267.145691	1231.606079	2006.726929	1340.077759	13.994164
267.520966	1247.424805	2160.395264	1385.274292	15.099009
267.896149	1310.700073	2176.214111	1378.494873	7.832894
268.271362	1236.125732	2135.537109	1369.455566	14.824121
268.646515	1157.031738	2045.144043	1321.999146	18.575062
269.021606	1281.322266	2286.945557	1401.093140	11.910113
269.396729	1260.983765	2255.307861	1380.754639	12.045456
269.771790	1299.400879	2207.851563	1238.385498	-6.716422
270.146790	1281.322266	2284.685791	1335.558105	5.405403
270.521790	1355.896606	2411.236084	1444.029785	8.351169
270.896759	1260.983765	2266.607178	1362.676025	10.112360
271.271667	1274.542725	2427.054932	1414.652100	12.156867
271.646545	1190.929199	2408.976318	1292.621338	8.348785
272.021423	1242.905151	2499.369385	1373.975220	10.431660
272.396271	1233.865845	2569.424072	1274.542725	3.045684
272.771027	1199.968506	2576.203369	1301.660645	7.389156
273.145813	1292.621338	2725.352051	1410.132446	8.201898
273.520538	1265.503418	2723.092285	1475.667480	14.418611
273.895233	1319.739380	2689.194824	1446.289673	9.240921
274.269897	1245.165039	2716.312744	1367.195679	8.294928
274.644501	1254.204346	2528.747070	1340.077759	6.737586
275.019135	1249.684692	2589.762451	1369.455566	8.937606
275.393677	1204.488159	2528.747070	1355.896606	11.433448
275.768250	1159.291626	2499.369385	1288.101685	9.612133
276.142700	1206.747925	2458.692383	1324.259033	9.386288
276.517212	1215.787231	2433.834229	1331.038452	9.461968
276.891632	1308.440186	2587.502686	1358.156372	3.886924
277.266022	1168.330933	2503.888916	1362.676025	14.551602
277.640381	1231.606079	2689.194824	1378.494873	10.077519
278.014740	1340.077759	2693.714600	1430.470825	6.677793
278.389038	1256.464111	2725.352051	1371.715332	7.846155
278.763336	1218.047119	2643.998291	1353.636719	9.508713
279.137543	1213.527466	2625.919678	1321.999146	7.679997
279.511780	1224.826538	2650.777832	1328.778687	7.290021
279.885925	1331.038452	2770.548584	1389.793945	4.081631
280.260101	1204.488159	2705.013672	1360.416260	10.391566
280.634186	1215.787231	2714.052979	1405.612793	12.669685
281.008301	1317.479492	2890.319580	1430.470825	7.183905
281.382294	1215.787231	2723.092285	1270.023071	3.598199
281.756348	1233.865845	2926.476807	1450.809326	12.817091
282.130280	1238.385498	2890.319580	1394.313599	9.439124
282.504272	1265.503418	2987.492188	1394.313599	7.480315
282.878143	1238.385498	3208.955322	1344.597412	5.389909
283.252014	1310.700073	3231.553467	1378.494873	3.529410
283.625854	1364.935913	3416.859375	1516.344360	7.378855
283.999664	1236.125732	3315.166992	1441.770020	9.891304
284.373444	1197.708618	3416.859375	1421.431519	10.081464
284.747192	1249.684692	3290.309082	1340.077759	4.429677
285.120941	1297.140991	3410.079834	1428.211060	6.203211
285.494629	1202.228271	3387.481689	1364.935913	7.445711
285.868256	1276.802612	3301.608154	1428.211060	7.477678
286.241882	1215.787231	3518.551514	1518.604126	13.150148
286.615448	1272.282959	3735.495117	1401.093140	5.229358
286.988983	1231.606079	3672.219971	1434.990479	8.333330
287.362518	1285.841919	3850.746338	1529.903320	9.515419
287.736023	1254.204346	3934.359863	1500.525513	9.190555
288.109467	1276.802612	3886.903564	1401.093140	4.761905
288.482880	1333.298340	3846.226563	1529.903320	7.823740
288.856262	1367.195679	3746.794189	1543.462280	7.407409
289.229584	1256.464111	3615.724121	1444.029785	7.950191
289.602936	1166.071045	3520.811523	1459.848633	12.476007
289.976227	1308.440186	3617.984131	1430.470825	5.283755
290.349457	1184.149658	3726.455811	1401.093140	8.533334
290.722687	1220.306885	3676.739502	1385.274292	6.715731
291.095886	1285.841919	3900.462402	1401.093140	4.407952
291.469025	1285.841919	3997.635010	1385.274292	3.666665
291.842133	1186.409546	4137.744141	1455.328979	9.111792
292.215240	1267.763306	4065.429932	1419.171753	5.411955
292.588287	1279.062378	4140.004395	1457.588867	6.240130
292.961304	1229.346191	4031.532471	1423.691406	6.935485
293.334320	1281.322266	4033.792236	1462.108521	6.568146
293.707245	1249.684692	3873.344482	1396.573486	5.598622
294.080170	1227.086426	3936.619629	1448.549561	8.173479
294.453064	1279.062378	4002.154785	1475.667480	7.219921
294.825897	1204.488159	4126.445313	1346.857300	4.872390
295.198730	1260.983765	4171.641602	1464.368286	6.987579
295.571533	1297.140991	4406.664063	1401.093140	3.343026
295.944275	1199.968506	4478.978516	1416.911865	6.616124
296.317017	1337.817993	4763.716797	1586.398926	7.255933
296.689697	1251.944458	4691.402344	1471.147827	6.373195
297.062317	1202.228271	4759.196777	1473.407593	7.623889
297.434967	1270.023071	4885.747070	1475.667480	5.687503
297.807526	1211.267578	5043.935059	1475.667480	6.898587
298.180115	1245.165039	4890.267090	1446.289673	5.517668
298.552612	1197.708618	5082.352539	1475.667480	7.155324
298.925110	1299.400879	5168.225586	1473.407593	4.497663
299.297546	1263.243652	5062.013672	1514.084473	6.603211
299.669983	1328.778687	5107.210449	1446.289673	3.110047
300.042358	1358.156372	4885.747070	1518.604126	4.548367
300.414734	1258.723999	4675.583496	1523.123779	7.738094
300.787048	1274.542725	4558.072266	1434.990479	4.886442
301.159332	1285.841919	4472.198730	1430.470825	4.539005
301.531616	1202.228271	4334.349121	1380.754639	5.699856
301.903809	1328.778687	4458.639648	1489.226440	5.126354
302.276031	1249.684692	4255.255371	1416.911865	5.563907
302.648163	1274.542725	4442.821289	1396.573486	3.851642
303.020294	1206.747925	4216.838379	1355.896606	4.954957
303.392395	1270.023071	4311.750977	1412.392212	4.680535
303.764435	1256.464111	4144.523926	1412.392212	5.399061
304.136444	1233.865845	4214.578613	1385.274292	5.079605
304.508453	1308.440186	4341.128906	1493.746094	6.110284
304.880371	1281.322266	4191.979980	1520.864014	8.229815
305.252319	1285.841919	4187.460449	1475.667480	6.542058
305.624207	1256.464111	4246.216309	1466.628174	7.029481
305.996033	1310.700073	4182.940918	1475.667480	5.743509
306.367859	1254.204346	4063.170166	1396.573486	5.068383
306.739655	1197.708618	4187.460449	1378.494873	6.046865
307.111389	1143.472778	4117.405762	1453.069214	10.410336
307.483124	1238.385498	4146.783691	1373.975220	4.662007
307.854828	1249.684692	4307.231445	1405.612793	5.099778
308.226471	1199.968506	4212.318848	1389.793945	6.301572
308.598083	1260.983765	4248.476074	1355.896606	3.177007
308.969666	1166.071045	4397.624512	1344.597412	5.524475
309.341187	1279.062378	4338.869141	1423.691406	4.726737
309.712738	1188.669312	4639.426270	1434.990479	7.138178
310.084167	1254.204346	4662.024414	1439.510132	5.437664
310.455658	1301.660645	4854.109863	1473.407593	4.834607
310.827057	1337.817993	4935.463379	1586.398926	6.909545
311.198456	1249.684692	4824.731934	1563.800659	8.786345
311.569794	1263.243652	4885.747070	1450.809326	5.177792
311.941132	1297.140991	4894.786621	1520.864014	6.218596
312.312408	1242.905151	4863.148926	1428.211060	5.118603
312.683655	1303.920532	4926.424316	1523.123779	6.051153
313.054840	1247.424805	4817.952637	1579.619507	9.303798
313.426056	1340.077759	4822.472168	1529.903320	5.451007
313.797180	1405.612793	4795.354004	1532.163086	3.733332
314.168304	1227.086426	4763.716797	1462.108521	6.645368
314.539368	1168.330933	4736.598633	1358.156372	5.319821
314.910431	1202.228271	4675.583496	1360.416260	4.554328
315.281433	1249.684692	4822.472168	1480.187134	6.451613
315.652435	1276.802612	4788.574707	1475.667480	5.662807
316.023346	1163.811279	4989.699219	1455.328979	7.619609
316.394287	1247.424805	4933.203613	1425.951172	4.843654
316.765137	1256.464111	4707.220703	1455.328979	5.762935
317.135986	1285.841919	4813.432617	1505.045166	6.213964
317.506775	1211.267578	4607.788574	1430.470825	6.453758
317.877594	1335.558105	4716.260254	1611.257080	8.155080
318.248291	1360.416260	4497.057129	1441.770020	2.593659
318.619019	1333.298340	4569.371582	1464.368286	4.050278
318.989655	1274.542725	4564.851563	1410.132446	4.120881
319.360321	1335.558105	4528.694336	1462.108521	3.963201
319.730896	1319.739380	4591.969727	1423.691406	3.176794
320.101501	1209.007813	4761.456543	1459.848633	7.061068
320.472015	1215.787231	4700.441406	1434.990479	6.290531
320.842529	1229.346191	4695.921875	1396.573486	4.823991
321.213013	1254.204346	4765.976563	1437.250366	5.212355
321.583466	1170.590698	4641.686035	1410.132446	6.901042
321.953827	1258.723999	4537.733887	1403.352905	4.410749
322.324188	1215.787231	4675.583496	1450.809326	6.792946
322.694519	1218.047119	4510.615723	1410.132446	5.833905
323.064819	1272.282959	4573.891113	1448.549561	5.338810
323.435059	1358.156372	4741.118164	1500.525513	4.208417
323.805328	1229.346191	4892.526855	1523.123779	8.019741
324.175507	1301.660645	5120.769531	1448.549561	3.846157
324.545685	1163.811279	5263.138672	1380.754639	5.292170
324.915802	1274.542725	5421.326660	1480.187134	4.959130
325.285919	1206.747925	5574.994629	1407.872559	4.604242
325.655975	1283.582031	5717.363770	1475.667480	4.332316
326.025970	1276.802612	5475.562500	1466.628174	4.520991
326.395966	1199.968506	5626.970703	1473.407593	6.176620
326.765930	1251.944458	5369.350586	1459.848633	5.049397
327.135864	1362.676025	5434.885254	1480.187134	2.885684
327.505737	1315.219727	5419.066406	1489.226440	4.240088
327.875580	1227.086426	5437.145020	1477.927246	5.958131
328.245422	1514.084473	5482.341797	1658.713501	3.644648
328.615204	1227.086426	5226.981445	1507.305054	7.005650
328.984955	1283.582031	5062.013672	1500.525513	5.741628
329.354675	1249.684692	5034.895996	1559.281006	8.179102
329.724365	1238.385498	5091.391602	1387.534180	3.870969
330.093994	1218.047119	5075.572754	1453.069214	6.092561
330.463623	1238.385498	5204.382813	1392.053833	3.874645
330.833191	1218.047119	5175.005371	1398.833252	4.568816
331.202759	1285.841919	5220.201660	1444.029785	4.020676
331.572266	1233.865845	5242.800293	1389.793945	3.889515
331.941711	1249.684692	5378.389648	1401.093140	3.667214
332.311188	1251.944458	5326.413574	1507.305054	6.267334
332.680573	1283.582031	5362.570801	1434.990479	3.711911
333.049988	1157.031738	5523.018555	1453.069214	6.780540
333.419312	1331.038452	5676.687012	1516.344360	4.264172
333.788635	1197.708618	5767.080078	1398.833252	4.401582
334.157867	1292.621338	5970.464355	1477.927246	3.961354
334.527130	1310.700073	5977.244141	1459.848633	3.196125
334.896332	1360.416260	6243.903809	1514.084473	3.146690
335.265503	1220.306885	6065.377441	1423.691406	4.197762
335.634613	1346.857300	6065.377441	1532.163086	3.927202
336.003723	1373.975220	6101.534668	1520.864014	3.107074
336.372772	1353.636719	6135.432129	1597.698120	5.103970
336.741821	1317.479492	5918.488281	1412.392212	2.062868
337.110809	1197.708618	5685.726074	1464.368286	5.941591
337.479797	1299.400879	5900.409668	1507.305054	4.518665
337.848724	1319.739380	5794.198242	1520.864014	4.494949
338.217590	1276.802612	5956.905762	1444.029785	3.573152
338.586487	1202.228271	5819.056152	1459.848633	5.580029
338.955292	1247.424805	5954.645996	1464.368286	4.608738
339.324036	1161.551392	5943.346680	1500.525513	7.088846
339.692841	1186.409546	6002.102051	1414.652100	4.739558
340.061523	1236.125732	5830.355469	1416.911865	3.935070
340.430237	1202.228271	5961.425293	1430.470825	4.795820
340.798859	1260.983765	6112.833496	1437.250366	3.632977
341.167511	1272.282959	6045.039063	1423.691406	3.172348
341.536072	1193.188965	5902.669922	1437.250366	5.182342
341.904663	1220.306885	5974.984375	1484.706787	5.560837
342.273102	1285.841919	6056.337891	1446.289673	3.363335
342.641632	1405.612793	6205.486816	1572.839966	3.483991
343.010040	1233.865845	5972.724609	1502.785400	5.674775
343.378510	1172.850586	6067.637207	1450.809326	5.678669
343.746826	1292.621338	6216.785645	1439.510132	2.983020
344.115204	1195.448853	6205.486816	1527.643433	6.630580
344.483490	1231.606079	6379.493164	1434.990479	3.950832
344.851776	1279.062378	6485.705078	1502.785400	4.296877
345.220001	1254.204346	6569.318848	1536.682739	5.314625
345.588196	1229.346191	6808.860840	1509.564819	5.022276
345.956329	1251.944458	6937.670898	1527.643433	4.848967
346.324524	1349.117065	6942.190430	1547.981934	3.555556
346.692596	1245.165039	6962.528809	1486.966553	4.229249
347.060669	1405.612793	7118.457031	1771.704834	6.408227
347.428680	1213.527466	6822.419434	1511.824707	5.318292
347.796692	1236.125732	6725.247070	1457.588867	4.034583
348.164612	1231.606079	6682.310059	1392.053833	2.943615
348.532562	1328.778687	6573.838379	1631.595581	5.773374
348.900421	1358.156372	6363.674805	1613.516968	5.101581
349.268311	1231.606079	6293.620117	1439.510132	4.107141
349.636108	1229.346191	6467.626465	1511.824707	5.392581
350.003906	1258.723999	6352.375488	1446.289673	3.682342
350.371643	1245.165039	6404.351563	1432.730713	3.635567
350.739380	1279.062378	6680.050293	1527.643433	4.602511
351.107025	1265.503418	6646.152832	1518.604126	4.703907
351.474701	1163.811279	6585.137695	1423.691406	4.793664
351.842285	1242.905151	6503.783691	1484.706787	4.596222
352.209900	1218.047119	6768.183594	1462.108521	4.397394
352.577393	1410.132446	6867.616211	1642.894653	4.265009
352.944946	1215.787231	6650.672852	1520.864014	5.613306
353.312378	1281.322266	6921.852051	1446.289673	2.924679
353.679840	1254.204346	6937.670898	1498.265747	4.294235
354.047211	1274.542725	7177.212402	1532.163086	4.364472
354.414612	1141.212891	7028.063965	1489.226440	5.911710
354.781891	1136.693237	7328.621094	1566.060547	6.934308
355.149231	1321.999146	7466.470215	1572.839966	4.082383
355.516449	1267.763306	7626.917969	1561.540894	4.619759
355.883698	1247.424805	7767.027344	1482.446899	3.604853
356.250854	1231.606079	7843.861816	1462.108521	3.485988
356.618011	1263.243652	7950.073730	1575.099854	4.663737
356.985168	1224.826538	8270.968750	1579.619507	5.035280
357.352234	1342.337646	8585.084961	1647.414307	4.212168
357.719269	1220.306885	8725.194336	1518.604126	3.974706
358.086304	1127.653931	9177.160156	1611.257080	6.007861
358.453278	1202.228271	9240.435547	1577.359619	4.666853
358.820190	1245.165039	9305.969727	1511.824707	3.308102
359.187103	1270.023071	9525.173828	1566.060547	3.586094
359.554016	1238.385498	9588.448242	1593.178467	4.248986
359.920837	1172.850586	9495.795898	1588.658813	4.995926
360.287628	1199.968506	9226.875977	1532.163086	4.138513
360.654388	1227.086426	9308.229492	1547.981934	3.970917
361.021149	1231.606079	9733.077148	1624.816040	4.625199
361.387848	1249.684692	10139.846680	1645.154541	4.448399
361.754486	1247.424805	10829.093750	1663.233154	4.339623
362.121124	1206.747925	11186.146484	1658.713501	4.528986
362.487732	1199.968506	11814.378906	1670.012573	4.428358
362.854279	1220.306885	11839.237305	1690.351074	4.426474
363.220795	1299.400879	11920.590820	1760.405762	4.340426
363.587311	1249.684692	11439.247070	1787.523682	5.278333
363.953735	1267.763306	11005.360352	1597.698120	3.388257
364.320160	1281.322266	10356.790039	1688.091187	4.482071
364.686554	1265.503418	9839.289063	1647.414307	4.454402
365.052887	1263.243652	9163.600586	1622.556274	4.548056
365.419189	1193.188965	8971.515625	1554.761353	4.648460
365.785492	1204.488159	8869.823242	1511.824707	4.009434
366.151703	1220.306885	8630.281250	1536.682739	4.269594
366.517944	1324.259033	8562.487305	1550.241699	3.122072
366.884094	1448.549561	8682.257813	1685.831421	3.280225
367.250214	1247.424805	8467.574219	1590.918701	4.757435
367.616333	1193.188965	8519.549805	1604.477661	5.613820
367.982361	1236.125732	8449.495117	1570.580200	4.636591
368.348419	1168.330933	8273.228516	1480.187134	4.389313
368.714386	1249.684692	8363.622070	1532.163086	3.970774
369.080383	1378.494873	8311.645508	1629.335693	3.617992
369.446289	1351.376953	8413.337891	1703.910034	4.992000
369.812195	1319.739380	8128.600098	1663.233154	5.044806
370.178009	1197.708618	7988.490723	1421.431519	3.294508
370.543854	1224.826538	8060.805176	1486.966553	3.834711
370.909607	1315.219727	7952.333496	1615.776733	4.528430
371.275360	1222.566772	8216.733398	1520.864014	4.264944
371.641052	1326.518799	8429.157227	1629.335693	4.263442
372.006744	1283.582031	8311.645508	1511.824707	3.247590
372.372375	1301.660645	8632.541016	1595.438354	4.007400
372.737976	1283.582031	8646.100586	1599.958008	4.297116
373.103546	1294.881226	8469.833984	1570.580200	3.842520
373.469055	1195.448853	8528.589844	1502.785400	4.191063
373.834595	1254.204346	8528.589844	1575.099854	4.411307
374.199982	1285.841919	8544.408203	1572.839966	3.953922
374.565460	1297.140991	8603.164063	1593.178467	4.051965
374.930817	1190.929199	8560.226563	1511.824707	4.354493
375.296204	1272.282959	8659.659180	1611.257080	4.588559
375.661499	1270.023071	8702.595703	1552.501587	3.800548
376.026825	1376.234985	9120.664063	1685.831421	3.997666
376.391998	1317.479492	8878.862305	1491.486206	2.301255
376.757263	1220.306885	9326.308594	1608.997314	4.795094
377.122406	1236.125732	9733.077148	1547.981934	3.670213
377.487549	1186.409546	9841.548828	1593.178467	4.699739
377.852631	1181.889893	10270.916992	1541.202393	3.953256
378.217743	1306.180420	10494.639648	1590.918701	3.098869
378.582764	1206.747925	10627.969727	1633.855347	4.533461
378.947754	1240.645386	10539.835938	1658.713501	4.495748
379.312714	1321.999146	10209.901367	1670.012573	3.915586
379.677673	1163.811279	9857.368164	1554.761353	4.497010
380.042542	1236.125732	9570.370117	1597.698120	4.338395
380.407379	1145.732544	9274.333008	1622.556274	5.866000
380.772186	1181.889893	9324.048828	1593.178467	5.051345
381.136993	1233.865845	9068.688477	1557.021240	4.124604
381.501740	1240.645386	9179.419922	1606.737427	4.611443
381.866486	1247.424805	9305.969727	1523.123779	3.421201
382.231110	1218.047119	9077.727539	1529.903320	3.967797
382.595764	1181.889893	9111.625000	1622.556274	5.557138
382.960327	1204.488159	9043.830078	1520.864014	4.035745
383.324951	1254.204346	9057.388672	1509.564819	3.272516
383.689453	1267.763306	9195.238281	1568.320313	3.791333
384.053986	1256.464111	9579.409180	1572.839966	3.801249
384.418396	1308.440186	9669.802734	1568.320313	3.108108
384.782867	1270.023071	9780.534180	1622.556274	4.142327
385.147217	1281.322266	9692.400391	1710.689453	5.104782
385.511597	1270.023071	10130.807617	1561.540894	3.289978
385.875885	1215.787231	9943.241211	1622.556274	4.660799
386.240204	1177.370239	9882.226563	1590.918701	4.750779
386.604401	1213.527466	10169.224609	1557.021240	3.835478
386.968628	1344.597412	10300.293945	1590.918701	2.750443
387.332764	1256.464111	10207.641602	1550.241699	3.281999
387.696930	1240.645386	10388.427734	1602.217773	3.952569
388.061005	1306.180420	10510.458008	1660.973267	3.854652
388.425140	1326.518799	10539.835938	1694.870728	3.998038
388.789124	1288.101685	10406.505859	1599.958008	3.420076
389.153168	1276.802612	10598.591797	1586.398926	3.321211
389.517090	1231.606079	10413.285156	1629.335693	4.331774
389.881042	1251.944458	10415.545898	1618.036621	3.995069
390.244873	1168.330933	10302.553711	1595.438354	4.675903
390.608734	1306.180420	10521.757813	1627.075928	3.482099
390.972534	1265.503418	10591.812500	1586.398926	3.440756
391.336304	1199.968506	10661.866211	1561.540894	3.821352
391.700043	1242.905151	10989.541992	1629.335693	3.964758
392.063751	1247.424805	11075.415039	1717.468994	4.782709
392.427399	1159.291626	11491.223633	1638.375000	4.636919
392.791077	1392.053833	11882.173828	1787.523682	3.769927
393.154663	1303.920532	11624.553711	1667.752808	3.525290
393.518219	1202.228271	11488.963867	1584.139160	3.712654
393.881744	1299.400879	11615.513672	1674.532227	3.636363
394.245209	1270.023071	11464.105469	1712.949341	4.344935
394.608704	1159.291626	11581.616211	1563.800659	3.881179
394.972107	1260.983765	11348.854492	1724.248413	4.592293
395.335480	1299.400879	11620.033203	1780.744141	4.663893
395.698792	1283.582031	11610.994141	1674.532227	3.785558
396.062103	1416.911865	11520.601563	1886.956055	4.652204
396.425385	1276.802612	11199.706055	1638.375000	3.643816
396.788635	1218.047119	10971.462891	1658.713501	4.518072
397.151825	1240.645386	10867.510742	1638.375000	4.131455
397.514984	1211.267578	10528.537109	1645.154541	4.656804
397.878113	1274.542725	10499.159180	1651.933960	4.091132
398.241180	1260.983765	10331.931641	1597.698120	3.712008
398.604248	1188.669312	10359.049805	1543.462280	3.868901
398.967285	1242.905151	10298.034180	1631.595581	4.292489
399.330231	1242.905151	10451.703125	1654.193848	4.466258
399.693176	1285.841919	10368.088867	1581.879272	3.259517
400.056091	1256.464111	10277.696289	1663.233154	4.509018
400.418976	1260.983765	10354.530273	1554.761353	3.230616
400.781830	1276.802612	10065.272461	1579.619507	3.445616
401.144592	1184.149658	10246.058594	1590.918701	4.488779
401.507355	1279.062378	10171.484375	1685.831421	4.574334
401.870087	1220.306885	10110.468750	1624.816040	4.550076
402.232758	1229.346191	10166.964844	1656.453613	4.778760
402.595428	1276.802612	10354.530273	1724.248413	4.929051
402.958038	1292.621338	10368.088867	1645.154541	3.884463
403.320618	1218.047119	10670.906250	1563.800659	3.657661
403.683167	1285.841919	10817.794922	1557.021240	2.844950
404.045654	1362.676025	10964.683594	1690.351074	3.412568
404.408142	1233.865845	11073.155273	1629.335693	4.019293
404.770569	1256.464111	11159.028320	1606.737427	3.537198
405.132996	1385.274292	11649.411133	1683.571533	2.906209
405.495331	1299.400879	11744.324219	1708.429688	3.916054
405.857666	1383.014526	11859.575195	1807.862061	4.055220
406.219940	1281.322266	11848.276367	1656.453613	3.550042
406.582214	1267.763306	12017.763672	1755.886108	4.540677
406.944427	1256.464111	11884.433594	1672.272461	3.912397
407.306549	1159.291626	11416.649414	1731.027954	5.573915
407.668732	1324.259033	11461.845703	1674.532227	3.455193
408.030792	1186.409546	11301.397461	1710.689453	5.183198
408.392914	1193.188965	11391.791016	1658.713501	4.564592
408.754883	1190.929199	11082.194336	1649.674194	4.637880
409.116943	1204.488159	11403.089844	1719.728760	5.052071
409.478882	1317.479492	11373.711914	1706.169800	3.865168
409.840820	1373.975220	11703.647461	1746.846802	3.609714
410.202667	1215.787231	11794.040039	1636.115234	3.973511
410.564575	1299.400879	11796.299805	1647.414307	3.315393
410.926331	1238.385498	12096.857422	1622.556274	3.537982
411.288147	1260.983765	11577.096680	1717.468994	4.424973
411.649872	1249.684692	11836.976563	1670.012573	3.970117
412.011566	1143.472778	11484.444336	1629.335693	4.698426
412.373199	1251.944458	11730.765625	1712.949341	4.399396
412.734894	1215.787231	11500.262695	1688.091187	4.592397
413.096436	1209.007813	11287.838867	1717.468994	5.044843
413.458008	1274.542725	11344.334961	1737.807495	4.600540
413.819519	1260.983765	11344.334961	1685.831421	4.213357
414.181030	1265.503418	11486.704102	1676.792114	4.023878
414.542450	1260.983765	11452.806641	1638.375000	3.702883
414.903870	1251.944458	11572.577148	1633.855347	3.700460
415.265198	1229.346191	11882.173828	1658.713501	4.030548
415.626587	1251.944458	11868.614258	1660.973267	3.852704
415.987854	1256.464111	11839.237305	1735.547607	4.527013
416.349152	1247.424805	12270.864258	1685.831421	3.977040
416.710327	1186.409546	12243.746094	1737.807495	4.986716
417.071533	1199.968506	12203.069336	1755.886108	5.052372
417.432678	1204.488159	12824.521484	1670.012573	4.006223
417.793823	1238.385498	13308.125000	1681.311768	3.669725
418.154877	1233.865845	13378.179688	1706.169800	3.889096
418.515930	1193.188965	13929.577148	1683.571533	3.850248
418.876923	1236.125732	14424.479492	1735.547607	3.786840
419.237915	1260.983765	14998.475586	1773.964722	3.734167
419.598816	1276.802612	15326.150391	1828.200562	3.924723
419.959717	1224.826538	15990.540039	1850.798828	4.239364
420.320526	1179.630005	16589.394531	1857.578247	4.399472
420.681396	1310.700073	16923.849609	1918.593628	3.893472
421.042145	1195.448853	17534.001953	1789.783447	3.637621
421.402924	1197.708618	18234.548828	1814.641602	3.621170
421.763580	1265.503418	18706.853516	1902.774902	3.653797
422.124298	1236.125732	19163.337891	1952.491089	3.995966
422.484894	1346.857300	19183.675781	2056.443115	3.978209
422.845520	1247.424805	19323.785156	1975.089355	4.025504
423.206055	1184.149658	19170.117188	1821.421021	3.543159
423.566589	1206.747925	18688.773438	1905.034668	3.994313
423.927063	1215.787231	19025.488281	1993.167969	4.364929
424.287506	1159.291626	19100.062500	1839.499634	3.791409
424.647949	1233.865845	18842.443359	1916.333862	3.875770
425.008301	1251.944458	19113.621094	1905.034668	3.656377
425.368652	1260.983765	18767.869141	1936.672241	3.859559
425.728943	1267.763306	18885.378906	1832.720215	3.206773
426.089203	1190.929199	18948.654297	1880.176514	3.881394
426.449432	1175.110352	18478.611328	1925.373169	4.335902
426.809601	1290.361572	18313.642578	1920.853516	3.703704
427.169739	1288.101685	18467.310547	1857.578247	3.314917
427.529846	1312.959839	18252.626953	2065.482422	4.442369
427.889954	1353.636719	17904.613281	2103.899414	4.533042
428.250000	1195.448853	17122.712891	1927.632935	4.597049
428.609985	1272.282959	17262.822266	1830.460327	3.490673
428.969940	1276.802612	16887.691406	1762.665527	3.112334
429.329865	1238.385498	16320.474609	1823.680908	3.880732
429.689789	1245.165039	16263.979492	1886.956055	4.273247
430.049622	1292.621338	16230.082031	1864.357788	3.827534
430.409454	1292.621338	15818.792969	1798.822754	3.484754
430.769226	1276.802612	15540.834961	1837.239868	3.929024
431.128937	1256.464111	15477.559570	1751.366455	3.480058
431.488678	1177.370239	15457.220703	1773.964722	4.177876
431.848328	1204.488159	15540.834961	1882.436401	4.728877
432.207947	1265.503418	15174.742188	1825.940674	4.029245
432.567566	1258.723999	15866.250000	1773.964722	3.527228
432.927124	1233.865845	16001.838867	1884.696289	4.407040
433.286621	1211.267578	16221.042969	1801.082642	3.929540
433.646118	1274.542725	16562.277344	1880.176514	3.961567
434.005554	1308.440186	16462.843750	1938.932129	4.160454
434.364960	1396.573486	16659.449219	1947.971436	3.612674
434.724335	1238.385498	16618.771484	1771.704834	3.467529
435.083649	1274.542725	16401.828125	1857.578247	3.854198
435.442932	1220.306885	16422.167969	1767.185181	3.597443
435.802216	1297.140991	16573.576172	1927.632935	4.127219
436.161407	1258.723999	16105.791016	1929.892822	4.520548
436.520630	1184.149658	16428.947266	1812.381714	4.120960
436.879761	1215.787231	16297.876953	1753.626221	3.566077
437.238831	1251.944458	16442.505859	1880.176514	4.135674
437.597931	1220.306885	16883.171875	1753.626221	3.404992
437.956940	1222.566772	16618.771484	1920.853516	4.535447
438.315948	1276.802612	16749.841797	1812.381714	3.461370
438.674896	1319.739380	16939.667969	1864.357788	3.486690
439.033844	1285.841919	16842.496094	1925.373169	4.110982
439.392700	1312.959839	16987.125000	1837.239868	3.344867
439.751556	1276.802612	17118.193359	1789.783447	3.238231
440.110352	1247.424805	17565.640625	1855.318481	3.725246
440.469116	1231.606079	17990.488281	1821.421021	3.519417
440.827850	1258.723999	18026.644531	1902.774902	3.840971
441.186554	1335.558105	18828.882813	2031.585083	3.978815
441.545197	1170.590698	19066.166016	1961.530396	4.419750
441.903809	1328.778687	19190.457031	2063.222656	4.111842
442.262390	1319.739380	19059.386719	1999.947388	3.834394
442.620941	1355.896606	18758.828125	2008.986694	3.752759
442.979462	1324.259033	18537.365234	1898.255249	3.334646
443.337921	1274.542725	18431.154297	1855.318481	3.385143
443.696350	1276.802612	18175.792969	1907.294556	3.730944
444.054718	1202.228271	18327.201172	1837.239868	3.708103
444.413086	1342.337646	18623.240234	2058.702881	4.145416
444.771423	1346.857300	18727.191406	1952.491089	3.484592
445.129669	1258.723999	18062.802734	1932.152588	4.007531
445.487915	1218.047119	17204.068359	1812.381714	3.717839
445.846130	1184.149658	17753.205078	1941.191895	4.569013
446.204285	1202.228271	17954.330078	1889.215942	4.100904
446.562408	1281.322266	18607.419922	1959.270508	3.912873
446.920532	1222.566772	19789.310547	1961.530396	3.980039
447.278595	1267.763306	20388.164063	2081.301270	4.254817
447.636566	1199.968506	20623.187500	2033.844849	4.293193
447.994568	1251.944458	21179.103516	2033.844849	3.923793
448.352509	1245.165039	21344.072266	2097.120117	4.238813
448.710419	1245.165039	20494.376953	1984.128662	3.838929
449.068237	1290.361572	20422.062500	1970.569702	3.555398
449.426056	1274.542725	20620.927734	2024.805542	3.878052
449.783844	1238.385498	20449.179688	1934.412476	3.623103
450.141602	1233.865845	19757.671875	2049.663574	4.404050
450.499329	1267.763306	19608.523438	1990.908081	3.942829
450.856964	1254.204346	19072.945313	1970.569702	4.020292
451.214630	1256.464111	19030.007813	2011.246582	4.246663
451.572235	1154.771851	18643.578125	1886.956055	4.186587
451.929779	1247.424805	18618.718750	1938.932129	3.980747
452.287323	1337.817993	18419.855469	1959.270508	3.638047
452.644806	1290.361572	18521.546875	1957.010742	3.868853
453.002258	1272.282959	18433.414063	2042.884155	4.490387
453.359650	1306.180420	18065.062500	1988.648315	4.072276
453.717010	1315.219727	18286.525391	2033.844849	4.234354
454.074341	1245.165039	17995.007813	1841.759521	3.561791
454.431641	1242.905151	17583.718750	1868.877441	3.830729
454.788910	1272.282959	17319.318359	1866.617554	3.703703
455.146118	1290.361572	17319.318359	1972.829468	4.257719
455.503296	1260.983765	16957.746094	1844.019287	3.714368
455.860443	1238.385498	17224.406250	1877.916748	4.000566
456.217560	1242.905151	17204.068359	1866.617554	3.907688
456.574615	1288.101685	17152.091797	1943.451782	4.131054
456.931641	1392.053833	16989.384766	1977.349121	3.752535
457.288635	1267.763306	16797.298828	1945.711548	4.365541
457.645599	1265.503418	17120.453125	1828.200562	3.549031
458.002502	1324.259033	17131.753906	1909.554321	3.702644
458.359375	1211.267578	17418.751953	1898.255249	4.238707
458.716217	1251.944458	17990.488281	1864.357788	3.658702
459.073029	1242.905151	18853.742188	1909.554321	3.785448
459.429779	1326.518799	19961.056641	2006.726929	3.650255
459.786499	1202.228271	20998.318359	2036.104736	4.212329
460.143219	1193.188965	22363.253906	2144.576416	4.494022
460.499847	1227.086426	22290.939453	2074.521729	4.023173
460.856476	1256.464111	23395.996094	2013.506348	3.419414
461.213043	1292.621338	23136.115234	2121.978027	3.796813
461.569550	1249.684692	23005.044922	2036.104736	3.614834
461.926056	1383.014526	22394.892578	2250.788330	4.129920
462.282501	1306.180420	21728.242188	2119.718262	3.983622
462.638916	1202.228271	20345.228516	1947.971436	3.895644
462.995331	1202.228271	20164.441406	1947.971436	3.932786
463.351654	1312.959839	19911.341797	1864.357788	2.964763
463.707947	1263.243652	19778.011719	1977.349121	3.856951
464.064209	1236.125732	18871.820313	2088.080811	4.830856
464.420441	1161.551392	18887.638672	1972.829468	4.576746
464.776642	1154.771851	18363.359375	1884.696289	4.241629
465.132782	1190.929199	18681.994141	1927.632935	4.211886
465.488892	1351.376953	18410.816406	1943.451782	3.470658
465.844971	1260.983765	18602.900391	1961.530396	4.039615
466.201019	1227.086426	18641.318359	1952.491089	4.165585
466.557007	1179.630005	18865.041016	1918.593628	4.178380
466.912964	1195.448853	18896.677734	1952.491089	4.276778
467.268890	1190.929199	19106.841797	1979.609009	4.402119
467.624756	1170.590698	19156.558594	2038.364502	4.824727
467.980591	1312.959839	19676.318359	1990.908081	3.691853
468.336426	1263.243652	19999.474609	2022.545654	4.052587
468.692169	1222.566772	19249.210938	1972.829468	4.161965
469.047913	1209.007813	19000.630859	1947.971436	4.153436
469.403625	1238.385498	18752.048828	1907.294556	3.819355
469.759247	1175.110352	18487.650391	1995.427734	4.738285
470.114838	1242.905151	18492.169922	1963.790161	4.179222
470.470459	1227.086426	18480.871094	1886.956055	3.824492
470.825958	1181.889893	18153.195313	1932.152588	4.420772
471.181488	1197.708618	18250.367188	1977.349121	4.571959
471.536926	1247.424805	18044.722656	1927.632935	4.049510
471.892365	1157.031738	18383.697266	1855.318481	4.053522
472.247742	1288.101685	18431.154297	1979.609009	4.033747
472.603058	1254.204346	18526.066406	1895.995361	3.715818
472.958374	1272.282959	18758.828125	1966.050049	3.967434
473.313629	1247.424805	18826.623047	1945.711548	3.972233
473.668884	1276.802612	19025.488281	2056.443115	4.392666
474.024048	1236.125732	19441.296875	1875.656860	3.512909
474.379211	1254.204346	19364.462891	1984.128662	4.030447
474.734314	1319.739380	18975.773438	1941.191895	3.519774
475.089417	1288.101685	19303.447266	2002.207275	3.963874
475.444458	1256.464111	19102.322266	2002.207275	4.178802
475.799438	1218.047119	19402.880859	1895.995361	3.728097
476.154388	1256.464111	19764.453125	1816.901367	3.028083
476.509308	1231.606079	20083.087891	1934.412476	3.728123
476.864197	1310.700073	20340.708984	1936.672241	3.289395
477.219025	1247.424805	20471.779297	1963.790161	3.726343
477.573822	1240.645386	20998.318359	1925.373169	3.465630
477.928619	1288.101685	21029.955078	2022.545654	3.720238
478.283325	1188.669312	21857.052734	2011.246582	3.979882
478.638000	1267.763306	22175.687500	2092.600342	3.945093
478.992676	1188.669312	22125.972656	2031.585083	4.025904
479.347260	1430.470825	22815.218750	2266.607178	3.909966
479.701843	1290.361572	22672.849609	2162.655029	4.079476
480.056366	1256.464111	23052.501953	2079.041504	3.773977
480.410858	1256.464111	23829.882813	2124.238037	3.844229
480.765320	1218.047119	24311.224609	2205.591797	4.276348
481.119751	1224.826538	24566.585938	2214.631104	4.240488
481.474091	1260.983765	25508.933594	2216.890869	3.942218
481.828430	1240.645386	26876.128906	2216.890869	3.808180
482.182709	1297.140991	28767.605469	2309.543701	3.685423
482.536987	1215.787231	31190.140625	2336.661865	3.739445
482.891174	1321.999146	33727.925781	2524.227539	3.709903
483.245361	1138.953125	38062.277344	2571.683838	3.880286
483.599518	1236.125732	43888.113281	3001.051025	4.137967
483.953644	1240.645386	49065.378906	3134.380859	3.959741
484.307678	1245.165039	52678.839844	3279.009766	3.954306
484.661713	1260.983765	54588.394531	3428.158447	4.063904
485.015686	1301.660645	55810.960938	3437.197754	3.917748
485.369659	1251.944458	55083.296875	3344.544922	3.887327
485.723572	1199.968506	53092.390625	3288.049072	4.023864
486.077423	1218.047119	50518.445313	3043.987793	3.703704
486.431274	1199.968506	47958.062500	3023.649414	3.900246
486.785034	1288.101685	46484.652344	3012.350098	3.815000
487.138794	1265.503418	45946.816406	2915.177734	3.692090
487.492523	1321.999146	46796.511719	3116.302246	3.945734
487.846191	1227.086426	47759.195313	2982.972412	3.773493
488.199829	1240.645386	48150.148438	3007.830566	3.767222
488.553436	1312.959839	48240.539063	3046.247559	3.693537
488.906982	1206.747925	47820.210938	3003.310791	3.854172
489.260529	1251.944458	46398.781250	2944.555420	3.749124
489.613983	1245.165039	44812.382813	2892.579346	3.781316
489.967438	1202.228271	42708.480469	2829.304199	3.920074
490.320831	1276.802612	40991.011719	2806.705811	3.852282
490.674194	1331.038452	39809.125000	2747.950439	3.682387
491.027527	1254.204346	39788.785156	2659.817139	3.647666
491.380798	1190.929199	40672.378906	2797.666504	4.069601
491.734070	1265.503418	42340.128906	2795.406738	3.724692
492.087250	1245.165039	43470.042969	2711.793213	3.473375
492.440430	1179.630005	43616.933594	2743.430664	3.684967
492.793549	1218.047119	42853.109375	2860.941650	3.945940
493.146637	1215.787231	41763.875000	2770.548584	3.834364
493.499695	1274.542725	39646.414063	2610.100830	3.480566
493.852692	1297.140991	37122.187500	2675.635986	3.847853
494.205658	1328.778687	34315.480469	2528.747070	3.637734
494.558594	1358.156372	32403.667969	2481.290771	3.617703
494.911499	1306.180420	30514.453125	2562.644531	4.301741
495.264374	1123.134277	29334.822266	2293.725098	4.149312
495.617188	1285.841919	28424.111328	2386.377930	4.055292
495.969940	1229.346191	28048.980469	2250.788330	3.808561
496.322693	1177.370239	27854.634766	2318.583252	4.277849
496.675385	1265.503418	27922.429688	2273.386475	3.780943
497.028015	1283.582031	28347.277344	2332.142090	3.874416
497.380676	1265.503418	28299.820313	2302.764404	3.836831
497.733246	1265.503418	28107.736328	2309.543701	3.889543
498.085785	1945.711548	28869.296875	3050.767334	4.104415
498.438263	1256.464111	27895.312500	2395.417236	4.275535
498.790710	1263.243652	27795.878906	2275.646484	3.815689
499.143158	1297.140991	27307.757813	2264.347168	3.718505
499.495544	1258.723999	27149.568359	2262.087402	3.875360
499.847870	1274.542725	26449.021484	2280.166016	3.994614
500.200165	1181.889893	26338.291016	2196.552490	4.033417
500.552429	1199.968506	25798.191406	2137.796875	3.812586
500.904663	1195.448853	25079.566406	2219.150635	4.286119
501.256866	1281.322266	25009.511719	2255.307861	4.104762
501.609009	1213.527466	24600.484375	2232.709717	4.357909
501.961090	1240.645386	24286.367188	2133.277344	3.873309
502.313171	1256.464111	24331.564453	2203.332031	4.103418
502.665253	1215.787231	24071.683594	2201.072021	4.310856
503.017181	1315.219727	23710.111328	2144.576416	3.703330
503.369110	1218.047119	23845.701172	2131.017334	4.034754
503.721069	1245.165039	23956.431641	2266.607178	4.497513
504.072937	1272.282959	23881.857422	2205.591797	4.127936
504.424774	1238.385498	23902.197266	2189.772949	4.197826
504.776520	1231.606079	24148.517578	2110.678955	3.835913
505.128265	1229.346191	23768.867188	2171.694336	4.180870
505.480042	1258.723999	24428.736328	2212.371338	4.115869
505.831665	1231.606079	23818.583984	2232.709717	4.432216
506.183289	1209.007813	23847.960938	2268.866943	4.681573
506.534882	1292.621338	24015.187500	2338.921631	4.604675
506.886505	1209.007813	23888.638672	2230.449951	4.503787
507.237946	1206.747925	23791.464844	2225.930176	4.512708
507.589417	1242.905151	23748.529297	2230.449951	4.387991
507.940857	1351.376953	23965.472656	2275.646484	4.087139
508.292297	1249.684692	23807.283203	2239.489258	4.387899
508.643616	1249.684692	24193.714844	2318.583252	4.658722
508.994904	1274.542725	24478.453125	2284.685791	4.353331
509.346191	1319.739380	24830.986328	2316.323242	4.238754
509.697479	1211.267578	24855.843750	2307.283936	4.635382
510.048645	1206.747925	25332.667969	2309.543701	4.571000
510.399780	1251.944458	25470.517578	2341.181396	4.497528
510.750916	1306.180420	25646.783203	2352.480469	4.298579
511.102051	1279.062378	25685.201172	2368.299316	4.462963
511.453033	1342.337646	26180.103516	2485.810303	4.603766
511.804016	1245.165039	25911.183594	2415.755615	4.745762
512.154968	1202.228271	26006.095703	2474.511230	5.129374
512.505920	1256.464111	26435.462891	2483.550537	4.873452
512.856750	1249.684692	26180.103516	2474.511230	4.912981
513.207581	1154.771851	26435.462891	2440.613770	5.086261
513.558411	1186.409546	26121.347656	2528.747070	5.383360
513.909180	1260.983765	26284.054688	2576.203369	5.256028
514.259888	1260.983765	26071.630859	2625.919678	5.501412
514.610535	1283.582031	25777.853516	2605.581299	5.397177
514.961182	1211.267578	25721.357422	2553.605225	5.476674
515.311829	1285.841919	25540.572266	2619.140137	5.497065
515.662354	1270.023071	25610.626953	2587.502686	5.412683
516.012878	1306.180420	25375.603516	2659.817139	5.623885
516.363281	1154.771851	25775.593750	2567.164063	5.736576
516.713745	1247.424805	25915.703125	2664.336670	5.743862
517.064209	1179.630005	26433.203125	2666.596680	5.888144
517.414490	1231.606079	26785.736328	2779.587891	6.057658
517.764832	1206.747925	27696.447266	2808.965820	6.048456
518.115173	1240.645386	28243.326172	2851.902344	5.967026
518.465393	1229.346191	29529.167969	2992.011719	6.228539
518.815552	1272.282959	30076.044922	3066.586182	6.229406
519.165710	1319.739380	30894.103516	3224.773926	6.441506
519.515869	1274.542725	30656.822266	2998.791260	5.868328
519.865967	1236.125732	30952.859375	3220.254395	6.676806
520.216003	1209.007813	30279.429688	3224.773926	6.934079
520.565918	1254.204346	29773.228516	3258.671387	7.028526
520.915955	1209.007813	29452.333984	3114.042480	6.745079
521.265869	1265.503418	28950.652344	3105.003174	6.644356
521.615723	1195.448853	28464.789063	3098.223633	6.977707
521.965576	1310.700073	28498.685547	3319.686768	7.389244
522.315369	1213.527466	27407.189453	3143.420166	7.367785
522.665161	1204.488159	27389.111328	3166.018555	7.491154
523.014832	1342.337646	27499.841797	3204.435547	7.118791
523.364502	1263.243652	27755.203125	3299.348389	7.685746
523.714172	1202.228271	27807.179688	3276.750000	7.797503
524.063782	1331.038452	28290.781250	3475.614990	7.954737
524.413330	1292.621338	28688.511719	3410.079834	7.729110
524.762817	1267.763306	29728.033203	3602.165283	8.202318
525.112366	1181.889893	30471.515625	3708.377197	8.625878
525.461792	1288.101685	32085.033203	3712.896729	7.873495
525.811157	1321.999146	33294.039063	3990.855469	8.347470
526.160522	1150.252197	34582.140625	4106.106934	8.841424
526.509827	1317.479492	35605.843750	4185.200684	8.363541
526.859131	1197.708618	36559.492188	4257.515137	8.652863
527.208313	1233.865845	38672.429688	4325.310059	8.257380
527.557495	1274.542725	40568.425781	4747.897949	8.839430
527.906738	1206.747925	42713.000000	4874.448242	8.836500
528.255859	1238.385498	46500.472656	5349.011719	9.081831
528.604919	1242.905151	50464.210938	5916.228516	9.494514
528.953918	1242.905151	52649.464844	6203.226563	9.649199
529.302917	1272.282959	53833.613281	6284.580566	9.536094
529.651917	1303.920532	54195.187500	6497.004395	9.818415
530.000793	1213.527466	53808.753906	6388.532715	9.839306
530.349609	1292.621338	52188.457031	6203.226563	9.648344
530.698547	1256.464111	49431.468750	5923.008301	9.686650
531.047302	1324.259033	46001.050781	5683.466309	9.757207
531.396057	1301.660645	43512.980469	5339.972656	9.566894
531.744751	1172.850586	41461.058594	5003.258301	9.507516
532.093445	1231.606079	40322.105469	4955.801758	9.527112
532.442139	1251.944458	39854.320313	4847.330078	9.313898
532.790710	1213.527466	39556.023438	4989.699219	9.848529
533.139160	1168.330933	41049.769531	5136.588379	9.950136
533.487732	1301.660645	41558.230469	5299.295898	9.930392
533.836243	1209.007813	42204.539063	5297.036133	9.971888
534.184631	1231.606079	42389.847656	5346.751953	9.998352
534.533020	1218.047119	42538.996094	5292.516113	9.860540
534.881348	1202.228271	40087.082031	5109.470215	10.048236
535.229736	1340.077759	39479.187500	5066.533691	9.770695
535.577942	1292.621338	37632.910156	5043.935059	10.322741
535.926086	1358.156372	36541.414063	4955.801758	10.225448
536.274353	1260.983765	35980.976563	4806.653320	10.212184
536.622498	1245.165039	35691.718750	4775.015625	10.247326
536.970642	1256.464111	35915.441406	4765.976563	10.125840
537.318665	1161.551392	35321.105469	4799.874023	10.650967
537.666687	1267.763306	34948.234375	4781.795410	10.433441
538.014709	1279.062378	34362.937500	4671.063477	10.252732
538.362610	1231.606079	33827.359375	4526.434570	10.108152
538.710510	1177.370239	32880.492188	4451.860352	10.328606
539.058411	1204.488159	31793.515625	4442.821289	10.586584
539.406250	1206.747925	31212.738281	4427.002441	10.732038
539.753967	1247.424805	31413.863281	4417.962891	10.510151
540.101746	1206.747925	31818.373047	4449.600586	10.593533
540.449463	1236.125732	33352.796875	4582.930176	10.420770
540.797119	1407.872559	35183.257813	4901.565918	10.343904
541.144714	1188.669312	37524.437500	4969.360840	10.404875
541.492249	1292.621338	40019.289063	5371.610352	10.532765
541.839844	1184.149658	41797.773438	5536.577637	10.716669
542.187378	1260.983765	42936.726563	5556.916016	10.307992
542.534790	1290.361572	42868.929688	5613.411621	10.397304
542.882202	1353.636719	42859.890625	5764.820313	10.627756
543.229553	1222.566772	41108.523438	5473.302246	10.657223
543.576965	1179.630005	39768.445313	5324.153809	10.740220
543.924194	1179.630005	38229.503906	5143.367676	10.698383
544.271423	1236.125732	36123.343750	4942.243164	10.623138
544.618652	1231.606079	34765.187500	4838.291016	10.755443
544.965881	1274.542725	33486.125000	4741.118164	10.761891
545.312988	1175.110352	31601.429688	4478.978516	10.858586
545.660034	1373.975220	31029.693359	4488.017578	10.500648
546.007141	1319.739380	30317.847656	4427.002441	10.715400
546.354126	1231.606079	29560.804688	4246.216309	10.641354
546.701111	1222.566772	29542.726563	4205.539063	10.533034
547.048035	1199.968506	29590.183594	4212.318848	10.610523
547.394836	1202.228271	28815.062500	4406.664063	11.604878
547.741699	1238.385498	28392.474609	4228.137695	11.010320
548.088562	1199.968506	28076.097656	4182.940918	11.098966
548.435303	1227.086426	27289.677734	4056.390625	10.855805
548.781921	1249.684692	26336.031250	4040.571777	11.125125
549.128662	1229.346191	25368.824219	3853.006104	10.868752
549.475342	1288.101685	25023.070313	3850.746338	10.796916
549.821899	1184.149658	23881.857422	3708.377197	11.121068
550.168457	1285.841919	23362.097656	3780.691650	11.301054
550.515015	1425.951172	22964.369141	3694.818115	10.534046
550.861511	1249.684692	22437.828125	3566.008057	10.932167
551.207886	1258.723999	21793.777344	3584.086670	11.323871
551.554260	1364.935913	21714.683594	3701.597656	11.482509
551.900635	1265.503418	21622.031250	3459.796143	10.779307
552.247009	1231.606079	21974.564453	3473.354980	10.807277
552.593262	1242.905151	21735.021484	3459.796143	10.818263
552.939392	1233.865845	22083.035156	3622.503662	11.456752
553.285645	1181.889893	22196.027344	3568.267822	11.356060
553.631775	1245.165039	21850.273438	3543.409668	11.153761
553.977905	1184.149658	21789.257813	3502.732910	11.252469
554.323975	1175.110352	21757.621094	3432.678223	10.968379
554.669983	1193.188965	21411.867188	3484.654297	11.333408
555.015991	1238.385498	21014.136719	3403.300293	10.947320
555.361877	1161.551392	21009.617188	3523.071289	11.897985
555.707825	1233.865845	20422.062500	3351.324463	11.035213
556.053711	1195.448853	20245.794922	3416.859375	11.660737
556.399536	1229.346191	20083.087891	3328.726074	11.135083
556.745239	1231.606079	20408.503906	3330.985840	10.947442
557.091003	1172.850586	19897.781250	3245.112549	11.066861
557.436707	1254.204346	19811.908203	3251.891846	10.764734
557.782410	1197.708618	19780.271484	3342.285156	11.540802
558.127991	1281.322266	19400.619141	3224.773926	10.725867
558.473511	1308.440186	19626.603516	3242.852539	10.560078
558.819092	1109.575317	19170.117188	3269.970459	11.961962
559.164612	1166.071045	19131.701172	3193.136475	11.283018
559.510010	1279.062378	19061.646484	3249.632080	11.081459
559.855408	1209.007813	19043.566406	3145.679932	10.859097
560.200806	1229.346191	19063.906250	3141.160400	10.719716
560.546143	1224.826538	18605.160156	2985.232178	10.128721
560.891357	1258.723999	19041.306641	3109.522705	10.407930
561.236633	1233.865845	19115.880859	3195.396240	10.969292
561.581848	1231.606079	19249.210938	3125.341553	10.510472
561.927002	1220.306885	19059.386719	3145.679932	10.793006
562.272095	1186.409546	19323.785156	3147.939941	10.814853
562.617126	1181.889893	18905.718750	3145.679932	11.079943
562.962219	1242.905151	19217.574219	3089.184326	10.271561
563.307251	1242.905151	19068.425781	3120.822021	10.534989
563.652161	1301.660645	18989.332031	3188.616699	10.668200
563.997009	1227.086426	18980.292969	3075.625488	10.412423
564.341919	1227.086426	18982.552734	3095.963867	10.525645
564.686768	1231.606079	19111.361328	3086.924561	10.376643
565.031555	1294.881226	19283.109375	3114.042480	10.113065
565.376282	1299.400879	19271.810547	3193.136475	10.536904
565.721008	1175.110352	19633.382813	3019.129639	9.990205
566.065674	1249.684692	20033.371094	3062.066406	9.648702
566.410278	1227.086426	20616.408203	3177.317627	10.058274
566.754822	1251.944458	20815.271484	3224.773926	10.084326
567.099365	1215.787231	20903.406250	3179.577393	9.974747
567.443909	1227.086426	21027.695313	3091.444092	9.415658
567.788330	1299.400879	20828.832031	3138.900635	9.419116
568.132751	1193.188965	20849.169922	3001.051025	9.197516
568.477112	1281.322266	20446.919922	3089.184326	9.432850
568.821533	1238.385498	20180.259766	2951.334961	9.043188
569.165771	1306.180420	19952.017578	3028.168945	9.235244
569.510010	1231.606079	19547.509766	2953.594727	9.401603
569.854248	1258.723999	19502.312500	2940.035645	9.215904
570.198364	1193.188965	19685.357422	2935.516113	9.421973
570.542542	1240.645386	19662.759766	2933.256348	9.187929
570.886536	1175.110352	20042.410156	2872.240967	8.995090
571.230591	1136.693237	20365.566406	2899.358887	9.166765
571.574646	1209.007813	20028.851563	2915.177734	9.065803
571.918518	1179.630005	20541.833984	2897.099121	8.870215
572.262451	1238.385498	20801.712891	2863.201660	8.305418
572.606323	1294.881226	21341.812500	2980.712646	8.409424
572.950195	1231.606079	20946.341797	2901.618652	8.470884
573.293945	1224.826538	21260.458984	2906.138428	8.391608
573.637695	1263.243652	20880.806641	2856.422119	8.121184
573.981384	1245.165039	20939.562500	2772.808594	7.756742
574.325134	1333.298340	20679.681641	2833.823730	7.756103
574.668701	1206.747925	20564.431641	2802.186279	8.241887
575.012268	1249.684692	20356.527344	2741.170898	7.806032
575.355774	1163.811279	20313.589844	2725.352051	8.154354
575.699341	1279.062378	20322.628906	2736.651123	7.653969
576.042725	1270.023071	20173.480469	2702.753906	7.579200
576.386169	1260.983765	19863.884766	2738.911133	7.944607
576.729553	1292.621338	19649.201172	2659.817139	7.447988
577.072876	1434.990479	19529.429688	2892.579346	8.055452
577.416138	1188.669312	18932.835938	2573.943604	7.806928
577.759399	1267.763306	18711.373047	2580.723145	7.526882
578.102600	1195.448853	18209.691406	2569.424072	8.075441
578.445801	1179.630005	18272.966797	2614.620605	8.395029
578.788940	1138.953125	17529.482422	2569.424072	8.727424
579.131897	1263.243652	17301.240234	2467.731689	7.510215
579.474976	1301.660645	17337.396484	2549.085449	7.779030
579.817993	1249.684692	16781.480469	2440.613770	7.667684
580.160950	1238.385498	16401.828125	2406.716309	7.704918
580.503845	1240.645386	16413.128906	2429.314697	7.834375
580.846680	1138.953125	16026.697266	2207.851563	7.179720
581.189514	1238.385498	16236.861328	2329.882324	7.277385
581.532349	1247.424805	15875.289063	2327.622559	7.384521
581.875061	1238.385498	15802.974609	2325.362549	7.463150
582.217773	1251.944458	15714.840820	2311.803711	7.328126
582.560425	1351.376953	15938.564453	2542.306152	8.164214
582.903076	1220.306885	15606.369141	2347.960938	7.838518
583.245667	1177.370239	15427.842773	2277.906250	7.722804
583.588135	1270.023071	15604.109375	2327.622559	7.378214
583.930664	1179.630005	15314.851563	2268.866943	7.705835
584.273071	1227.086426	15414.284180	2316.323242	7.677604
584.615479	1258.723999	15147.624023	2216.890869	6.898796
584.957825	1197.708618	15023.333984	2264.347168	7.714939
585.300232	1224.826538	15109.207031	2253.048096	7.405599
585.642517	1233.865845	15210.899414	2135.537109	6.451092
585.984680	1251.944458	14901.303711	2142.316650	6.523180
586.326843	1301.660645	15064.010742	2237.229248	6.798029
586.669067	1199.968506	15125.026367	2207.851563	7.237909
587.011230	1306.180420	14865.146484	2155.875488	6.266666
587.353271	1199.968506	15084.349609	2124.238037	6.656901
587.695251	1220.306885	15002.995117	2106.159424	6.427284
588.037231	1242.905151	14910.342773	2178.473877	6.845239
588.379211	1242.905151	15012.035156	2248.528564	7.303464
588.721069	1184.149658	15217.678711	2187.513184	7.149759
589.062927	1312.959839	15199.600586	2173.954102	6.200162
589.404785	1310.700073	15303.552734	2253.048096	6.734496
589.746582	1118.614624	15310.332031	2210.111328	7.691082
590.088257	1258.723999	15326.150391	2151.355957	6.345382
590.429932	1251.944458	15423.323242	2203.332031	6.713444
590.771606	1215.787231	15599.589844	2169.434570	6.630009
591.113220	1186.409546	15475.299805	2171.694336	6.895461
591.454773	1358.156372	15545.354492	2320.843018	6.785601
591.796265	1215.787231	15100.167969	2212.371338	7.177735
592.137817	1206.747925	15179.261719	2205.591797	7.148634
592.479248	1202.228271	14948.759766	2119.718262	6.674338
592.820618	1188.669312	15021.074219	2108.419189	6.649240
593.161926	1231.606079	14912.602539	2185.253418	6.970599
593.503296	1175.110352	15140.844727	2250.788330	7.702266
593.844604	1240.645386	14969.097656	2117.458496	6.386832
594.185791	1227.086426	15039.152344	2137.796875	6.593586
594.526917	1267.763306	15066.270508	2158.135254	6.452669
594.868103	1236.125732	15441.402344	2144.576416	6.395164
595.209229	1249.684692	15493.377930	2121.978027	6.124067
595.550232	1290.361572	15515.976563	2169.434570	6.179508
595.891235	1224.826538	15882.068359	2117.458496	6.090040
596.232178	1233.865845	16162.287109	2266.607178	6.917954
596.573181	1337.817993	16386.009766	2244.008789	6.021925
596.914063	1258.723999	16541.937500	2223.670410	6.313766
597.254883	1229.346191	16810.857422	2311.803711	6.947063
597.595703	1238.385498	17091.076172	2311.803711	6.771205
597.936462	1222.566772	16964.525391	2230.449951	6.402527
598.277161	1213.527466	16709.166016	2178.473877	6.227213
598.617798	1218.047119	16623.291016	2076.781494	5.574299
598.958435	1204.488159	16121.610352	2047.403809	5.650659
599.299072	1247.424805	15583.771484	2223.670410	6.809584
599.639587	1340.077759	15274.174805	2210.111328	6.243918
599.980103	1251.944458	14923.901367	2149.095947	6.561983
600.320557	1301.660645	14682.099609	2212.371338	6.806284
600.661072	1292.621338	14501.313477	2065.482422	5.851155
601.001404	1276.802612	14363.463867	2056.443115	5.957520
601.341675	1301.660645	14318.267578	2119.718262	6.284722
601.681946	1294.881226	14146.520508	2094.860107	6.224722
602.022278	1229.346191	14153.300781	2063.222656	6.452177
602.362427	1204.488159	14245.953125	2137.796875	7.156472
602.702576	1218.047119	14318.267578	2081.301270	6.589615
603.042725	1251.944458	14557.809570	1990.908081	5.553668
603.382813	1299.400879	14993.956055	2124.238037	6.023103
603.722839	1215.787231	15341.969727	2081.301270	6.127020
604.062805	1238.385498	15396.205078	2207.851563	6.847566
604.402771	1403.352905	16431.207031	2286.945557	5.879699
604.742737	1281.322266	16539.677734	2201.072021	6.027843
605.082581	1184.149658	16749.841797	2135.537109	6.112079
605.422363	1163.811279	16987.125000	2085.820801	5.826905
605.762146	1263.243652	16858.314453	2228.189941	6.187509
606.101929	1258.723999	16878.652344	2182.993408	5.917245
606.441589	1312.959839	16517.080078	2196.552490	5.811534
606.781189	1240.645386	15961.162109	2135.537109	6.079214
607.120850	1220.306885	15604.109375	2119.718262	6.252946
607.460388	1247.424805	14991.696289	2063.222656	5.935548
607.799927	1251.944458	14905.823242	2110.678955	6.289308
608.139404	1218.047119	14960.058594	1957.010742	5.377405
608.478821	1353.636719	14641.422852	1986.388428	4.761905
608.818298	1285.841919	14722.777344	2029.325195	5.533131
609.157593	1215.787231	14912.602539	2060.962891	6.170600
609.496887	1276.802612	15021.074219	2140.056641	6.280828
609.836182	1220.306885	15497.897461	2081.301270	6.030390
610.175415	1306.180420	15443.662109	2067.742188	5.386827
610.514526	1306.180420	15335.190430	2108.419189	5.718428
610.853699	1249.684692	15351.008789	2153.615723	6.410256
611.192688	1240.645386	15192.821289	2092.600342	6.106252
611.531799	1204.488159	14806.390625	2013.506348	5.947831
611.870850	1301.660645	14616.565430	2024.805542	5.431094
612.209778	1240.645386	14257.251953	2020.285889	5.989583
612.548645	1276.802612	13789.467773	1961.530396	5.472278
612.887573	1256.464111	13592.863281	2038.364502	6.338157
613.226440	1249.684692	13412.077148	1959.270508	5.834262
613.565186	1177.370239	13262.928711	1918.593628	6.133133
613.903931	1258.723999	13199.653320	1961.530396	5.885693
614.242676	1204.488159	12788.364258	1837.239868	5.462349
614.581360	1312.959839	12725.088867	1963.790161	5.702971
614.919983	1251.944458	12605.318359	1828.200562	5.075637
615.258484	1260.983765	12564.641602	1898.255249	5.637745
615.597046	1227.086426	12435.831055	1862.097900	5.665322
615.935547	1202.228271	12422.272461	1841.759521	5.699900
616.273987	1190.929199	12257.304688	1844.019287	5.901572
616.612366	1292.621338	12395.154297	1954.750854	5.963770
616.950806	1224.826538	12071.999023	1821.421021	5.500000
617.289124	1247.424805	12426.791992	1859.838135	5.478068
617.627380	1283.582031	12291.202148	1846.279175	5.111887
617.965515	1265.503418	12510.405273	1895.995361	5.606914
618.303772	1301.660645	12334.138672	1871.137207	5.161819
618.641968	1197.708618	12331.878906	1837.239868	5.743861
618.980042	1218.047119	12397.414063	1837.239868	5.538710
619.318054	1215.787231	12343.178711	1810.121948	5.341187
619.656128	1213.527466	12451.650391	1773.964722	4.986929
619.994080	1163.811279	12076.518555	1762.665527	5.487678
620.331970	1199.968506	12370.295898	1823.680908	5.583654
620.669861	1249.684692	12178.210938	1787.523682	4.921423
621.007751	1161.551392	11938.668945	1819.161255	6.101909
621.345581	1279.062378	12067.479492	1764.925415	4.503562
621.683289	1215.787231	12221.147461	1780.744141	5.133471
622.020996	1240.645386	12252.785156	1758.145874	4.699364
622.358704	1240.645386	11986.125977	1893.735596	6.077813
622.696350	1222.566772	11816.638672	1787.523682	5.332764
623.033875	1297.140991	11873.134766	1839.499634	5.128205
623.371460	1231.606079	11931.889648	1742.327148	4.772968
623.708984	1285.841919	11721.725586	1807.862061	5.002165
624.046448	1315.219727	11861.834961	1864.357788	5.206770
624.383789	1265.503418	11902.511719	1780.744141	4.843850
624.721191	1270.023071	11834.716797	1889.215942	5.860964
625.058533	1227.086426	11816.638672	1828.200562	5.676483
625.395813	1254.204346	12081.038086	1762.665527	4.696305
625.733032	1231.606079	12117.195313	1801.082642	5.231472
626.070190	1267.763306	12081.038086	1830.460327	5.203762
626.407410	1306.180420	12410.973633	2024.805542	6.471306
626.744507	1193.188965	12451.650391	1810.121948	5.479728
627.081543	1166.071045	12743.167969	1841.759521	5.836424
627.418518	1245.165039	12890.056641	1821.421021	4.948573
627.755554	1199.968506	12709.270508	1828.200562	5.458472
628.092529	1283.582031	12987.229492	1900.515015	5.271288
628.429382	1236.125732	12946.552734	1807.862061	4.882284
628.766174	1272.282959	12756.726563	1893.735596	5.411256
629.103027	1220.306885	12596.279297	1823.680908	5.303934
629.439819	1279.062378	12010.983398	1825.940674	5.095810
629.776489	1283.582031	12175.951172	1859.838135	5.290457
630.113159	1166.071045	12053.920898	1805.602295	5.873807
630.449829	1218.047119	11866.354492	1816.901367	5.623938
630.786377	1240.645386	11846.016602	1728.768066	4.602599
631.122925	1389.793945	11945.449219	2020.285889	5.973025
631.459412	1276.802612	11622.292969	1859.838135	5.635649
631.795898	1215.787231	11446.027344	1710.689453	4.837640
632.132324	1222.566772	11222.303711	1679.051880	4.564971
632.468689	1331.038452	11168.068359	1746.846802	4.226970
632.804993	1184.149658	10872.030273	1721.988647	5.551668
633.141296	1193.188965	10978.242188	1670.012573	4.872980
633.477539	1166.071045	11102.533203	1751.366455	5.890380
633.813721	1231.606079	10896.888672	1692.610840	4.769698
634.149841	1179.630005	10969.203125	1760.405762	5.932595
634.485962	1206.747925	11172.587891	1764.925415	5.600908
634.822083	1297.140991	11041.517578	1855.318481	5.728201
635.158020	1319.739380	10655.086914	1803.342407	5.180343
635.494019	1179.630005	10650.567383	1733.287720	5.845860
635.829956	1213.527466	10759.039063	1710.689453	5.208333
636.165894	1150.252197	10607.630859	1731.027954	6.140980
636.501709	1306.180420	10505.938477	1814.641602	5.526897
636.837463	1213.527466	10474.300781	1590.918701	4.075159
637.173279	1274.542725	10316.113281	1760.405762	5.373658
637.509033	1229.346191	10309.333984	1731.027954	5.525136
637.844666	1240.645386	10004.256836	1586.398926	3.945332
638.180237	1337.817993	10438.143555	1755.886108	4.593991
638.515869	1256.464111	10001.997070	1706.169800	5.142118
638.851440	1224.826538	9742.117188	1651.933960	5.014592
639.186890	1240.645386	9701.440430	1690.351074	5.315171
639.522339	1251.944458	9764.714844	1631.595581	4.459784
639.857727	1321.999146	9685.621094	1670.012573	4.161037
640.193176	1321.999146	9690.140625	1740.067261	4.995949
640.528442	1179.630005	9292.411133	1620.296387	5.431755
640.863708	1279.062378	9468.677734	1703.910034	5.187639
641.198914	1236.125732	9425.741211	1620.296387	4.690949
641.534180	1303.920532	9414.441406	1663.233154	4.430204
641.869263	1206.747925	9518.393555	1649.674194	5.328984
642.204346	1247.424805	9247.214844	1642.894653	4.943503
642.539368	1218.047119	9220.096680	1676.792114	5.732843
642.874390	1218.047119	9287.891602	1735.547607	6.412769
643.209412	1175.110352	9159.081055	1563.800659	4.868383
643.544312	1279.062378	9195.238281	1660.973267	4.824437
643.879150	1224.826538	8978.294922	1568.320313	4.430195
644.213989	1331.038452	8964.736328	1685.831421	4.647721
644.548828	1342.337646	8944.397461	1570.580200	3.002378
644.883545	1270.023071	8826.886719	1629.335693	4.754785
645.218262	1177.370239	8693.556641	1541.202393	4.840648
645.552856	1285.841919	8856.264648	1663.233154	4.985075
645.887573	1308.440186	8971.515625	1624.816040	4.128576
646.222107	1274.542725	8973.775391	1584.139160	4.021134
646.556580	1290.361572	8844.964844	1568.320313	3.679329
646.891113	1168.330933	8910.500000	1624.816040	5.896088
647.225586	1263.243652	8933.098633	1588.658813	4.242781
647.559937	1270.023071	8942.137695	1529.903320	3.387335
647.894226	1319.739380	8955.697266	1599.958008	3.669724
648.228577	1392.053833	9037.050781	1649.674194	3.369790
648.562927	1256.464111	8905.980469	1527.643433	3.545052
648.897095	1254.204346	8996.374023	1588.658813	4.319906
649.231262	1168.330933	8756.832031	1529.903320	4.764740
649.565430	1242.905151	9016.711914	1545.722046	3.895349
649.899475	1177.370239	8756.832031	1584.139160	5.366725
650.233521	1242.905151	8917.279297	1545.722046	3.945819
650.567505	1209.007813	8725.194336	1523.123779	4.179193
650.901428	1267.763306	8643.840820	1649.674194	5.177696
651.235413	1202.228271	8786.209961	1541.202393	4.469606
651.569275	1177.370239	8770.390625	1534.422974	4.702381
651.903015	1351.376953	8915.019531	1703.910034	4.660890
652.236816	1220.306885	8641.581055	1545.722046	4.384896
652.570618	1247.424805	8707.116211	1541.202393	3.938200
652.904297	1251.944458	8720.674805	1595.438354	4.599093
653.237915	1240.645386	8799.768555	1692.610840	5.979073
653.571533	1344.597412	8718.415039	1493.746094	2.022679
653.905090	1267.763306	8515.030273	1575.099854	4.240723
654.238586	1263.243652	8512.770508	1538.942627	3.802993
654.572021	1224.826538	8431.416992	1509.564819	3.951082
654.905457	1229.346191	8533.109375	1532.163086	4.146039
655.238892	1310.700073	8372.661133	1482.446899	2.431999
655.572144	1231.606079	8411.078125	1523.123779	4.060433
655.905457	1197.708618	8386.220703	1520.864014	4.495442
656.238708	1202.228271	8212.213867	1602.217773	5.705996
656.571960	1256.464111	8399.779297	1514.084473	3.606454
656.905090	1224.826538	8264.189453	1538.942627	4.462280
657.238159	1204.488159	8300.346680	1482.446899	3.917197
657.571289	1453.069214	8564.747070	1588.658813	1.906577
657.904358	1218.047119	8325.205078	1536.682739	4.483305
658.237305	1184.149658	8383.959961	1541.202393	4.959196
658.570190	1251.944458	8704.856445	1529.903320	3.729534
658.903076	1238.385498	8808.807617	1536.682739	3.940299
659.236023	1265.503418	8935.358398	1649.674194	5.008840
659.568787	1224.826538	9066.428711	1561.540894	4.293949
659.901428	1190.929199	9437.040039	1579.619507	4.713619
660.234192	1197.708618	9251.734375	1538.942627	4.236813
660.566895	1206.747925	9486.755859	1547.981934	4.121180
660.899536	1276.802612	9335.347656	1685.831421	5.075716
661.232056	1238.385498	9147.782227	1613.516968	4.742858
661.564636	1249.684692	9111.625000	1520.864014	3.449267
661.897156	1236.125732	8973.775391	1534.422974	3.855140
662.229553	1256.464111	8802.028320	1579.619507	4.282720
662.561951	1213.527466	8438.196289	1563.800659	4.848294
662.894287	1274.542725	8637.061523	1557.021240	3.836710
663.226685	1229.346191	8252.890625	1500.525513	3.861004
663.558899	1285.841919	8325.205078	1577.359619	4.141251
663.891052	1193.188965	8024.647949	1563.800659	5.425074
664.223328	1274.542725	7943.293945	1584.139160	4.642495
664.555420	1308.440186	7771.547363	1502.785400	3.006994
664.887512	1236.125732	7920.695801	1464.368286	3.414469
665.219543	1238.385498	7873.239258	1604.477661	5.517713
665.551575	1227.086426	7834.822266	1581.879272	5.369356
665.883545	1220.306885	7541.044922	1532.163086	4.933857
666.215454	1213.527466	7606.579590	1507.305054	4.595263
666.547302	1267.763306	7475.509766	1536.682739	4.331997
666.879150	1362.676025	7769.287109	1602.217773	3.738977
667.210938	1251.944458	7611.099609	1547.981934	4.655295
667.542664	1236.125732	7556.863770	1536.682739	4.755094
667.874268	1245.165039	7638.217285	1527.643433	4.418521
668.205994	1249.684692	7586.241211	1559.281006	4.885876
668.537537	1299.400879	7642.736816	1577.359619	4.381902
668.869080	1199.968506	7593.020996	1547.981934	5.443619
669.200562	1213.527466	7622.398438	1511.824707	4.654443
669.532043	1229.346191	7583.981445	1466.628174	3.733999
669.863525	1245.165039	7755.728516	1541.202393	4.547031
670.194824	1227.086426	7543.304688	1407.872559	2.862253
670.526184	1315.219727	7597.540527	1453.069214	2.194245
670.857483	1308.440186	7529.745605	1455.328979	2.361061
671.188660	1340.077759	7642.736816	1538.942627	3.155253
671.519897	1218.047119	7373.817383	1466.628174	4.038179
671.851013	1224.826538	7306.022461	1423.691406	3.270161
672.182129	1321.999146	7299.243164	1496.005859	2.911153
672.513184	1161.551392	7165.913574	1468.887939	5.118554
672.844238	1344.597412	7355.738770	1631.595581	4.774437
673.175171	1288.101685	7141.055176	1507.305054	3.745175
673.506104	1288.101685	7301.502930	1597.698120	5.148441
673.836975	1360.416260	7258.566406	1597.698120	4.022988
674.167786	1285.841919	7118.457031	1554.761353	4.610615
674.498596	1236.125732	7183.992188	1538.942627	5.091186
674.829407	1184.149658	7247.267090	1554.761353	6.112560
675.160034	1324.259033	7032.583496	1545.722046	3.879650
675.490723	1279.062378	6930.891113	1541.202393	4.638145
675.821289	1184.149658	7100.378418	1480.187134	5.003821
676.151917	1256.464111	6903.773438	1496.005859	4.241697
676.482422	1249.684692	7032.583496	1645.154541	6.838609
676.812927	1260.983765	6874.395508	1563.800659	5.394525
677.143311	1292.621338	6994.166504	1527.643433	4.122077
677.473694	1272.282959	6915.072266	1527.643433	4.525430
677.804016	1166.071045	6894.733887	1446.289673	4.891519
678.134338	1249.684692	6978.347656	1486.966553	4.142011
678.464539	1236.125732	7014.504883	1552.501587	5.475166
678.794800	1301.660645	7050.662109	1577.359619	4.795598
679.124878	1233.865845	6973.828125	1525.383667	5.078741
679.455078	1270.023071	7118.457031	1468.887939	3.400310
679.785095	1335.558105	7086.819336	1586.398926	4.361492
680.115173	1138.953125	7170.433105	1446.289673	5.095541
680.445129	1288.101685	7360.258301	1550.241699	4.317082
680.775024	1333.298340	7400.935547	1615.776733	4.655492
681.104919	1292.621338	7428.053223	1579.619507	4.677718
681.434814	1157.031738	7396.416016	1505.045166	5.577689
681.764526	1177.370239	7414.494629	1473.407593	4.746376
682.094360	1231.606079	7495.848145	1511.824707	4.473304
682.424011	1364.935913	7525.226074	1649.674194	4.622157
682.753723	1233.865845	7398.675781	1618.036621	6.231673
683.083313	1218.047119	7357.998535	1525.383667	5.005521
683.412903	1258.723999	7217.889160	1514.084473	4.285172
683.742432	1245.165039	7272.125488	1464.368286	3.637045
684.071899	1204.488159	7177.212402	1557.021240	5.902383
684.401306	1276.802612	7098.118652	1597.698120	5.512422
684.730713	1218.047119	6831.458984	1534.422974	5.636070
685.060059	1251.944458	6935.411133	1570.580200	5.606362
685.389404	1270.023071	6802.081055	1550.241699	5.065360
685.718628	1260.983765	6711.687988	1477.927246	3.980100
686.047852	1242.905151	6790.781738	1570.580200	5.906315
686.376953	1351.376953	6840.498047	1649.674194	5.434335
686.706116	1256.464111	6786.262207	1536.682739	5.067430
687.035156	1297.140991	6435.989258	1568.320313	5.277045
687.364197	1222.566772	6759.144531	1575.099854	6.367346
687.693176	1335.558105	6707.168457	1532.163086	3.660075
688.022156	1297.140991	6750.104980	1575.099854	5.097391
688.351013	1254.204346	6655.192383	1457.588867	3.765691
688.679871	1184.149658	6700.388672	1511.824707	5.940189
689.008606	1292.621338	6765.923828	1484.706787	3.509498
689.337402	1213.527466	6598.696777	1505.045166	5.413343
689.666138	1342.337646	6438.249023	1516.344360	3.414634
689.994751	1179.630005	6648.412598	1486.966553	5.619835
690.323364	1166.071045	6408.871094	1455.328979	5.517241
690.651917	1204.488159	6329.777344	1518.604126	6.128747
690.980469	1351.376953	6510.563477	1654.193848	5.869470
691.308960	1276.802612	6110.573730	1554.761353	5.750350
691.637451	1272.282959	6210.006348	1496.005859	4.530891
691.965759	1227.086426	6219.045410	1536.682739	6.201900
692.294128	1222.566772	6051.818359	1541.202393	6.598033
692.622437	1193.188965	5952.385742	1505.045166	6.552707
692.950684	1181.889893	5961.425293	1514.084473	6.950353
693.278870	1240.645386	5920.748535	1597.698120	7.629164
693.607117	1170.590698	5895.890137	1457.588867	6.073650
693.935120	1238.385498	5823.575684	1534.422974	6.456383
694.263245	1288.101685	5764.820313	1570.580200	6.309946
694.591248	1224.826538	5699.285156	1638.375000	9.242425
694.919250	1308.440186	5742.222168	1636.115234	7.390418
695.247192	1215.787231	5606.632324	1590.918701	8.543491
695.575073	1258.723999	5807.756836	1647.414307	8.544460
695.902893	1281.322266	5647.309082	1568.320313	6.573498
696.230774	1267.763306	5624.710938	1624.816040	8.195020
696.558411	1306.180420	5972.724609	1681.311768	8.038740
696.886169	1224.826538	5769.339844	1622.556274	8.751866
697.213806	1229.346191	5812.276855	1663.233154	9.467457
697.541443	1279.062378	6085.715820	1703.910034	8.838741
697.869019	1236.125732	6092.495117	1685.831421	9.260121
698.196533	1215.787231	6139.951660	1692.610840	9.683340
698.524048	1224.826538	6377.233398	1760.405762	10.394739
698.851501	1163.811279	6515.083008	1916.333862	14.062501
699.178772	1211.267578	6727.506836	1875.656860	12.044244
699.506226	1233.865845	6915.072266	1830.460327	10.501193
699.833435	1238.385498	6942.190430	1966.050049	12.757529
700.160767	1168.330933	6788.521973	1871.137207	12.505025
700.487915	1163.811279	6768.183594	1880.176514	12.782257
700.815063	1193.188965	6594.176758	1828.200562	11.757323
701.142151	1184.149658	6476.666016	1970.569702	14.859095
701.469238	1263.243652	6506.043457	1900.515015	12.155172
701.796265	1220.306885	6347.855957	1875.656860	12.780960
702.123230	1308.440186	6169.329590	1947.971436	13.156671
702.450134	1297.140991	5995.322754	1966.050049	14.237616
702.777039	1301.660645	5868.772461	2013.506348	15.586343
703.103882	1353.636719	5649.568848	1916.333862	13.098372
703.430664	1389.793945	5516.239258	1934.412476	13.198249
703.757385	1299.400879	5471.042480	1947.971436	15.547131
704.084106	1227.086426	5312.854492	1938.932129	17.422567
704.410767	1258.723999	5236.020508	1911.814209	16.420456
704.737366	1229.346191	5231.500977	1970.569702	18.520611
705.063904	1337.817993	5339.972656	2070.002197	18.294750
705.390442	1290.361572	5251.839355	2022.545654	18.482599
705.716919	1204.488159	5127.548828	1986.388428	19.930874
706.043396	1292.621338	5222.461426	1990.908081	17.768833
706.369690	1229.346191	5073.312988	1952.491089	18.812466
706.696106	1392.053833	5147.887207	2115.198730	19.253912
707.022278	1258.723999	5150.146973	2040.624390	20.092918
707.348633	1240.645386	5102.690918	2103.899414	22.352249
707.674805	1231.606079	5265.398438	2015.766235	19.439774
708.000916	1288.101685	5161.446289	2124.238037	21.586933
708.327026	1251.944458	4996.479004	2094.860107	22.510557
708.653076	1143.472778	5052.974609	2070.002197	23.699423
708.979065	1204.488159	5208.902832	2126.497803	23.024830
709.305054	1184.149658	5034.895996	2144.576416	24.941315
709.630920	1276.802612	5068.793457	2187.513184	24.016687
709.956787	1213.527466	5154.666992	2085.820801	22.133022
710.282593	1211.267578	5089.131836	2318.583252	28.554781
710.608459	1172.850586	5084.612305	2255.307861	27.671862
710.934082	1227.086426	5256.358887	2182.993408	23.724060
711.259827	1224.826538	5308.334961	2323.102783	26.895409
711.585449	1199.968506	5168.225586	2379.598389	29.726650
711.911072	1206.747925	5414.546875	2422.535156	28.893663
712.236572	1249.684692	5258.618652	2390.897705	28.466743
712.562073	1247.424805	5538.837402	2357.000244	25.855715
712.887512	1175.110352	5303.815430	2250.788330	26.053640
713.213013	1236.125732	5412.287109	2580.723145	32.196972
713.538330	1251.944458	5326.413574	2433.834229	29.007208
713.863647	1245.165039	5211.162598	2411.236084	29.401709
714.188904	1236.125732	5206.642578	2501.629150	31.872511
714.514099	1247.424805	5217.941895	2512.928223	31.872509
714.839294	1272.282959	5154.666992	2479.031006	31.082655
715.164490	1308.440186	5193.083984	2544.565918	31.820826
715.489502	1299.400879	5199.863281	2540.046143	31.807646
715.814575	1204.488159	5109.470215	2515.188232	33.564819
716.139526	1303.920532	5005.518066	2587.502686	34.676437
716.464539	1251.944458	5037.155762	2535.526611	33.910446
716.789368	1222.566772	4926.424316	2503.888916	34.594261
717.114258	1245.165039	5080.092285	2544.565918	33.883324
717.439026	1179.630005	5021.336914	2540.046143	35.411762
717.763794	1166.071045	4937.723145	2508.408691	35.590176
718.088440	1256.464111	4933.203613	2537.786377	34.849415
718.413208	1188.669312	4955.801758	2594.281982	37.312538
718.737793	1288.101685	4793.094238	2562.644531	36.363640
719.062378	1301.660645	4860.889160	2623.659912	37.142860
719.386841	1256.464111	4598.749023	2549.085449	38.674782
719.711304	1211.267578	4537.733887	2639.478760	42.934784
720.035767	1186.409546	4521.915039	2499.369385	39.363144
720.360168	1272.282959	4494.797363	2567.164063	40.182323
720.684570	1233.865845	4386.325195	2585.242676	42.867382
721.008789	1346.857300	4594.229492	2756.989746	43.423801
721.333069	1288.101685	4422.482422	2718.572510	45.638065
721.657227	1231.606079	4375.026367	2666.596680	45.650612
721.981445	1224.826538	4316.270508	2603.321289	44.590645
722.305481	1227.086426	4302.711914	2596.541992	44.526085
722.629578	1215.787231	4365.986816	2601.061523	43.974174
722.953552	1256.464111	4250.735840	2623.659912	45.660378
723.277588	1276.802612	4212.318848	2612.360840	45.496540
723.601440	1125.394165	4341.128906	2614.620605	46.310612
723.925354	1190.929199	4076.729004	2580.723145	48.159748
724.249146	1312.959839	4300.452148	2700.493896	46.444775
724.572937	1270.023071	4277.853516	2736.651123	48.760326
724.896667	1238.385498	4302.711914	2711.793213	48.082596
725.220398	1168.330933	4180.681152	2768.288818	53.113277
725.543945	1190.929199	4212.318848	2804.446045	53.403137
725.867615	1260.983765	4271.074219	2788.627197	50.750751
726.191101	1218.047119	4289.152832	2824.784424	52.317879
726.514648	1331.038452	4212.318848	2858.681885	53.019604
726.838074	1258.723999	4393.104980	2858.681885	51.045422
727.161499	1213.527466	4325.310059	2827.044434	51.851852
727.484863	1233.865845	4341.128906	2818.005127	50.981819
727.808228	1331.038452	4517.395508	2962.634033	51.205677
728.131470	1270.023071	4503.836426	2849.642578	48.846958
728.454712	1306.180420	4411.183594	2980.712646	53.930130
728.777832	1188.669312	4481.238281	2992.011719	54.770073
729.101013	1242.905151	4336.609375	3028.168945	57.706352
729.424011	1324.259033	4478.978516	2996.531494	53.008595
729.747070	1260.983765	4490.277344	3161.498779	58.852348
730.070068	1260.983765	4573.891113	3147.939941	56.957714
730.393005	1281.322266	4411.183594	3043.987793	56.317688
730.715881	1206.747925	4393.104980	2958.114258	54.964539
731.038757	1224.826538	4417.962891	3116.302246	59.235672
731.361572	1197.708618	4329.829590	3082.404785	60.173157
731.684326	1193.188965	4445.081055	3080.145020	58.026405
732.007019	1249.684692	4314.010742	3129.861328	61.356937
732.329712	1186.409546	4524.174805	3211.215088	60.663513
732.652283	1256.464111	4467.679199	3120.822021	58.057709
732.974854	1267.763306	4447.340820	3236.073242	61.904762
733.297363	1251.944458	4517.395508	3242.852539	60.968853
733.619873	1283.582031	4395.364746	3265.450928	63.689178
733.942261	1265.503418	4406.664063	3147.939941	59.928055
734.264648	1321.999146	4494.797363	3236.073242	60.327633
734.586975	1204.488159	4354.687988	3114.042480	60.616928
734.909302	1270.023071	4286.893066	3082.404785	60.074902
735.231506	1360.416260	4472.198730	3202.175781	59.186642
735.553711	1215.787231	4332.089355	3163.758545	62.509064
735.875854	1326.518799	4282.373535	3134.380859	61.162075
736.197937	1224.826538	4112.886230	3082.404785	64.319252
736.519958	1251.944458	4155.822754	3118.562012	64.280159
736.841980	1260.983765	4101.586914	3141.160400	66.189346
737.163940	1249.684692	4022.493164	2980.712646	62.428684
737.485840	1290.361572	3961.477783	3053.027100	65.989845
737.807678	1238.385498	4067.689697	3001.051025	62.300320
738.129517	1233.865845	3932.100098	2971.673340	64.405357
738.451233	1238.385498	4083.508545	3123.081787	66.243050
738.773010	1240.645386	3893.682861	3091.444092	69.761497
739.094666	1170.590698	4106.106934	3143.420166	67.205544
739.416260	1274.542725	4250.735840	3283.529541	67.501900
739.737854	1265.503418	4151.303223	3172.797852	66.092400
740.059448	1231.606079	4099.327148	3116.302246	65.721039
740.380859	1233.865845	3988.595703	3080.145020	67.022148
740.702332	1238.385498	3981.816162	2994.271484	64.003296
741.023682	1161.551392	4038.312012	3159.239014	69.442261
741.345032	1251.944458	4015.713623	3093.704102	66.639420
741.666321	1288.101685	4049.611084	3147.939941	67.348618
741.987549	1260.983765	3943.399170	3105.003174	68.744736
742.308777	1270.023071	3941.139404	3136.640625	69.881554
742.629944	1195.448853	3877.864258	3053.027100	69.250206
742.950989	1319.739380	3895.942871	3123.081787	69.999992
743.272095	1267.763306	3627.023438	2949.074951	71.264359
743.593140	1349.117065	3816.848877	3005.570801	67.124542
743.914063	1179.630005	3710.636963	3012.350098	72.410713
744.234985	1147.992432	3575.047363	2989.751953	75.884544
744.555847	1224.826538	3656.401123	2946.815186	70.817841
744.876648	1227.086426	3633.802734	2906.138428	69.765266
745.197449	1283.582031	3511.772217	2831.563965	69.472610
745.518188	1328.778687	3584.086670	2985.232178	73.446884
745.838867	1231.606079	3581.826660	2894.839111	70.769226
746.159485	1285.841919	3561.488281	2856.422119	69.016876
746.480042	1260.983765	3475.614990	2815.745117	70.204071
746.800537	1197.708618	3547.929443	2827.044434	69.326927
747.121094	1310.700073	3581.826660	3019.129639	75.223885
747.441528	1281.322266	3523.071289	2912.917725	72.782257
747.761902	1215.787231	3529.850830	2822.524658	69.433594
748.082275	1204.488159	3527.590820	2827.044434	69.844368
748.402588	1319.739380	3710.636963	2908.398193	66.446129
748.722839	1301.660645	3518.551514	2888.059570	71.559631
749.043030	1251.944458	3434.937988	2732.131592	67.805382
749.363159	1224.826538	3462.055908	2901.618652	74.949493
749.683289	1233.865845	3595.385742	2955.854492	72.918655
750.003357	1220.306885	3486.914063	2824.784424	70.787628
750.323303	1163.811279	3473.354980	2824.784424	71.917809
750.643311	1249.684692	3523.071289	2806.705811	68.489059
750.963257	1437.250366	3602.165283	2978.452881	71.189980
751.283142	1369.455566	3536.630127	2910.657959	71.115746
751.602905	1186.409546	3398.780762	2790.887207	72.522987
751.922729	1344.597412	3638.322510	2876.760498	66.798027
752.242432	1233.865845	3294.828613	2736.651123	72.916656
752.562134	1263.243652	3385.221680	2811.225586	72.949951
752.881714	1172.850586	3269.970459	2808.965820	78.017250
753.201355	1224.826538	3434.937988	2804.446045	71.472397
753.520874	1206.747925	3351.324463	2734.391357	71.232864
753.840393	1270.023071	3389.741455	2802.186279	72.281456
754.159851	1177.370239	3392.001221	2768.288818	71.836739
754.479248	1245.165039	3349.064453	2851.902344	76.369492
754.798523	1274.542725	3353.584229	2797.666504	73.260864
755.117859	1267.763306	3351.324463	2811.225586	74.078094
755.437134	1263.243652	3308.387695	2759.249512	73.149170
755.756348	1416.911865	3364.883301	2709.533203	66.357307
756.075500	1265.503418	3405.560303	2815.745117	72.439278
756.394653	1240.645386	3353.584229	2795.406738	73.582878
756.713623	1299.400879	3326.466309	2779.587891	73.021179
757.032654	1328.778687	3346.804688	2781.847900	72.004486
757.351624	1281.322266	3285.789307	2772.808594	74.408127
757.670532	1211.267578	3170.538086	2829.304199	82.583626
757.989441	1242.905151	3208.955322	2709.533203	74.597694
758.308289	1215.787231	3346.804688	2732.131592	71.155884
758.627014	1263.243652	3382.961914	2734.391357	69.402985
758.945801	1213.527466	3283.529541	2716.312744	72.598251
759.264404	1204.488159	3317.427002	2747.950439	73.048126
759.583130	1276.802612	3333.245850	2964.893799	82.087898
759.901611	1355.896606	3430.418213	2781.847900	68.736397
760.220215	1279.062378	3267.710693	2888.059570	80.909088
760.538635	1317.479492	3516.291748	2777.328125	66.392601
760.857117	1145.732544	3378.442383	2741.170898	71.457481
761.175537	1423.691406	3514.031982	2915.177734	71.351357
761.493896	1215.787231	3398.780762	2822.524658	73.602478
761.812134	1324.259033	3333.245850	2906.138428	78.740158
762.130432	1351.376953	3516.291748	2910.657959	72.025055
762.448608	1245.165039	3432.678223	2736.651123	68.181808
762.766785	1360.416260	3550.189209	2840.603271	67.595459
763.084900	1340.077759	3437.197754	2908.398193	74.784485
763.402954	1240.645386	3480.134521	2901.618652	74.167503
763.720947	1236.125732	3681.259277	3016.869873	72.828094
764.038940	1238.385498	3909.501709	3147.939941	71.489006
764.356750	1294.881226	4214.578613	3448.496826	73.761612
764.674683	1267.763306	4176.161621	3321.946533	70.629356
764.992493	1231.606079	4343.388672	3498.213135	72.839500
765.310303	1236.125732	4309.491211	3516.291748	74.191177
765.627930	1315.219727	4280.113281	3434.937988	71.493904
765.945679	1367.195679	4250.735840	3398.780762	70.454544
766.263306	1342.337646	4008.934082	3378.442383	76.355942
766.580872	1308.440186	3927.580322	3220.254395	72.993965
766.898376	1249.684692	3749.053955	3037.208252	71.518990
767.215881	1218.047119	3669.959961	3010.090332	73.087555
767.533325	1254.204346	3412.339600	2921.957031	77.277489
767.850708	1215.787231	3407.820068	2912.917725	77.422684
768.168030	1249.684692	3396.520996	2865.461426	75.263153
768.485352	1288.101685	3301.608154	2784.107666	74.298546
768.802551	1373.975220	3269.970459	2648.518066	67.222893
769.119751	1242.905151	3215.734619	2639.478760	70.790390
769.436890	1229.346191	3172.797852	2677.895752	74.534889
769.753967	1283.582031	3093.704102	2675.635986	76.903870
770.071045	1227.086426	3016.869873	2628.179443	78.282822
770.388062	1301.660645	3204.435547	2671.116211	71.971497
770.704956	1274.542725	2946.815186	2515.188232	74.189194
771.021912	1294.881226	3132.121094	2512.928223	66.297661
771.338684	1247.424805	2960.374268	2517.447998	74.142479
771.655579	1267.763306	2964.893799	2506.148926	72.969383
771.972351	1317.479492	2940.035645	2571.683838	77.298058
772.289063	1263.243652	2879.020264	2526.487305	78.181824
772.605713	1184.149658	2906.138428	2472.251465	74.803146
772.922302	1247.424805	2912.917725	2442.873535	71.777473
773.238831	1222.566772	2858.681885	2531.006836	79.972374
773.555420	1317.479492	3093.704102	2589.762451	71.628494
773.871826	1256.464111	2953.594727	2404.456543	67.643143
774.188293	1281.322266	2903.878418	2465.471924	72.980507
774.504639	1281.322266	2955.854492	2458.692383	70.310387
774.820984	1306.180420	2915.177734	2451.912842	71.207855
775.137207	1227.086426	2872.240967	2377.338623	69.917580
775.453552	1188.669312	2745.690430	2316.323242	72.423805
775.769592	1263.243652	2813.485352	2488.070313	79.008751
776.085815	1166.071045	2761.509277	2350.220703	74.220963
776.401855	1249.684692	2777.328125	2415.755615	76.331352
776.717896	1242.905151	2851.902344	2476.770996	76.685394
777.033875	1270.023071	2930.996338	2531.006836	75.918365
777.349854	1222.566772	2725.352051	2465.471924	82.706772
777.665710	1263.243652	2793.146973	2336.661865	70.162483
777.981567	1263.243652	2806.705811	2454.172852	77.159599
778.297363	1172.850586	2786.367432	2295.984863	69.607841
778.613098	1281.322266	2752.469971	2352.480469	72.811058
778.928772	1240.645386	2766.029053	2397.677002	75.851845
779.244385	1306.180420	2763.769287	2474.511230	80.155029
779.559998	1184.149658	2838.343506	2334.401855	69.535515
779.875488	1193.188965	2711.793213	2323.102783	74.404755
780.191040	1283.582031	2808.965820	2460.952393	77.185188
780.506470	1177.370239	2691.454590	2366.039551	78.507469
780.821899	1258.723999	2738.911133	2393.157471	76.641220
781.137207	1229.346191	2750.210205	2343.441162	73.254082
781.452576	1175.110352	2686.935059	2289.205322	73.692070
781.767822	1267.763306	2799.926514	2309.543701	67.994087
782.083069	1215.787231	2695.974365	2363.779785	77.557259
782.398193	1283.582031	2594.281982	2325.362549	79.482765
782.713379	1251.944458	2725.352051	2266.607178	68.865036
783.028381	1310.700073	2700.493896	2427.054932	80.325211
783.343384	1193.188965	2607.841064	2244.008789	74.281151
783.658386	1276.802612	2641.738525	2268.866943	72.682121
783.973328	1260.983765	2671.116211	2323.102783	75.320518
784.288086	1351.376953	2761.509277	2309.543701	67.948715
784.602966	1240.645386	2521.967529	2275.646484	80.776024
784.917725	1247.424805	2668.856445	2162.655029	64.387917
785.232483	1254.204346	2605.581299	2273.386475	75.418045
785.547119	1306.180420	2641.738525	2284.685791	73.265656
785.861755	1222.566772	2582.982910	2228.189941	73.920265
786.176270	1211.267578	2537.786377	2117.458496	68.313461
786.490845	1233.865845	2544.565918	2187.513184	72.758621
786.805298	1204.488159	2436.094238	2124.238037	74.678902
787.119751	1306.180420	2664.336670	2146.836182	61.896835
787.434143	1240.645386	2531.006836	2196.552490	74.080566
787.748474	1220.306885	2598.801758	2137.796875	66.557373
788.062744	1265.503418	2646.258057	2264.347168	72.340424
788.377014	1199.968506	2605.581299	2277.906250	76.688103
788.691162	1163.811279	2621.400146	2253.048096	74.728676
789.005310	1256.464111	2750.210205	2347.960938	73.071106
789.319397	1229.346191	2589.762451	2332.142090	81.063126
789.633423	1233.865845	2659.817139	2266.607178	72.424728
789.947449	1222.566772	2827.044434	2216.890869	61.971825
790.261414	1206.747925	2632.699219	2293.725098	76.228210
790.575256	1247.424805	2605.581299	2180.733643	68.718796
790.889160	1279.062378	2729.871826	2205.591797	63.862930
791.202881	1222.566772	2580.723145	2237.229248	74.708809
791.516663	1163.811279	2653.037598	2158.135254	66.767822
791.830322	1279.062378	2515.188232	2264.347168	79.707481
792.144043	1147.992432	2469.991699	2169.434570	77.264954
792.457581	1245.165039	2560.384766	1993.167969	56.872849
792.771118	1240.645386	2494.849609	2083.561035	67.207207
793.084656	1326.518799	2515.188232	2253.048096	77.946762
793.398071	1315.219727	2465.471924	2230.449951	79.567787
793.711487	1231.606079	2406.716309	2085.820801	72.692307
794.024841	1222.566772	2458.692383	2060.962891	67.824509
794.338135	1301.660645	2451.912842	2083.561035	67.976433
794.651428	1258.723999	2436.094238	2112.938721	72.552773
794.964600	1283.582031	2555.864990	2140.056641	67.317932
795.277771	1238.385498	2463.212158	2065.482422	67.527672
795.590881	1324.259033	2429.314697	2140.056641	73.824120
795.903931	1473.407593	2594.281982	2106.159424	56.451626
796.216980	1281.322266	2418.015625	1997.687622	63.021866
796.529907	1353.636719	2601.061523	2210.111328	68.659416
796.842834	1175.110352	2406.716309	2124.238037	77.064232
797.155701	1315.219727	2472.251465	2241.749023	80.078125
797.468506	1312.959839	2603.321289	2214.631104	69.877419
797.781250	1331.038452	2494.849609	2234.969482	77.669907
798.093994	1231.606079	2508.408691	2140.056641	71.150429
798.406677	1206.747925	2481.290771	2158.135254	74.645378
798.719238	1197.708618	2451.912842	2133.277344	74.594604
799.031921	1274.542725	2408.976318	2124.238037	74.900398
799.344360	1188.669312	2494.849609	2128.757568	71.972321
799.656860	1299.400879	2456.432617	2164.914795	74.804680
799.969299	1195.448853	2359.260010	2063.222656	74.563110
800.281677	1233.865845	2277.906250	1984.128662	71.861473
800.593933	1263.243652	2230.449951	2029.325195	79.205597
800.906250	1163.811279	2216.890869	2045.144043	83.690994
801.218445	1161.551392	2338.921631	1988.648315	70.249519
801.530640	1181.889893	2248.528564	1972.829468	74.152534
801.842712	1193.188965	2311.803711	2015.766235	73.535347
802.154846	1209.007813	2336.661865	1995.427734	69.739464
802.466797	1224.826538	2225.930176	1995.427734	76.975166
802.778870	1276.802612	2225.930176	2015.766235	77.857147
803.090759	1308.440186	2262.087402	2101.639648	83.175354
803.402649	1154.771851	2228.189941	2047.403809	83.157898
803.714478	1195.448853	2286.945557	1902.774902	64.803314
804.026245	1245.165039	2237.229248	2047.403809	80.865608
804.337952	1220.306885	2298.244629	1993.167969	71.698120
804.649658	1240.645386	2210.111328	2006.726929	79.020988
804.961243	1276.802612	2253.048096	1961.530396	70.138893
805.272888	1240.645386	2246.268555	2049.663574	80.449440
805.584412	1172.850586	2198.812256	2070.002197	87.444946
805.895874	1238.385498	2192.032715	2033.844849	83.412331
806.207336	1159.291626	2277.906250	2008.986694	75.959587
806.518677	1285.841919	2280.166016	2056.443115	77.500000
806.830017	1215.787231	2286.945557	2049.663574	77.848091
807.141357	1274.542725	2262.087402	2031.585083	76.659050
807.452576	1272.282959	2302.764404	2015.766235	72.149117
807.763733	1265.503418	2291.465088	2063.222656	77.753319
808.074890	1202.228271	2295.984863	1981.868774	71.280991
808.385925	1369.455566	2298.244629	2099.379883	78.588814
808.697021	1267.763306	2253.048096	2036.104736	77.981659
809.007935	1301.660645	2372.819092	2038.364502	68.776367
809.318909	1249.684692	2293.725098	2119.718262	83.333321
809.629822	1274.542725	2230.449951	1927.632935	68.321503
809.940674	1129.913818	2153.615723	1927.632935	77.924942
810.251404	1301.660645	2173.954102	1893.735596	67.875664
810.562195	1337.817993	2255.307861	2049.663574	77.586205
810.872864	1272.282959	2063.222656	1909.554321	80.571419
811.183533	1211.267578	2255.307861	1999.947388	75.541130
811.494080	1215.787231	2162.655029	1909.554321	73.269691
811.804626	1272.282959	2124.238037	1975.089355	82.493362
812.115112	1197.708618	2092.600342	1873.397095	75.505051
812.425598	1218.047119	2164.914795	1794.303101	60.859188
812.735962	1172.850586	2060.962891	1783.004028	68.702286
813.046326	1218.047119	2101.639648	1855.318481	72.122765
813.356628	1317.479492	2194.292725	1977.349121	75.257721
813.666870	1260.983765	2065.482422	1841.759521	72.191017
813.976990	1276.802612	2119.718262	1859.838135	69.168907
814.287170	1179.630005	2020.285889	1762.665527	69.354836
814.597290	1265.503418	2155.875488	1891.475708	70.304573
814.907349	1190.929199	2031.585083	1857.578247	79.301064
815.217346	1360.416260	2277.906250	2031.585083	73.152710
815.527283	1290.361572	2108.419189	1907.294556	75.414368
815.837158	1229.346191	2070.002197	1882.436401	77.688164
816.147034	1238.385498	2173.954102	1893.735596	70.048325
816.456787	1260.983765	2142.316650	1923.113281	75.128197
816.766541	1292.621338	2108.419189	1866.617554	70.360107
817.076233	1369.455566	2101.639648	1823.680908	62.037041
817.385925	1319.739380	2121.978027	1891.475708	71.267609
817.695496	1421.431519	2257.567871	2002.207275	69.459457
818.005066	1288.101685	2042.884155	1905.034668	81.736526
818.314514	1245.165039	2192.032715	1927.632935	72.076378
818.623962	1258.723999	2038.364502	1963.790161	90.434776
818.933350	1265.503418	2106.159424	1823.680908	66.397850
819.242737	1301.660645	2230.449951	1947.971436	69.586372
819.552002	1274.542725	2070.002197	1905.034668	79.261353
819.861328	1290.361572	2280.166016	1929.892822	64.611877
820.170471	1242.905151	2273.386475	1968.309814	70.394745
820.479675	1272.282959	2300.504395	1945.711548	65.494507
820.788696	1238.385498	2325.362549	2054.183350	75.051987
821.097839	1213.527466	2422.535156	2099.379883	73.271034
821.406738	1362.676025	2625.919678	2300.504395	74.239708
821.715698	1197.708618	2531.006836	2234.969482	77.796616
822.024597	1270.023071	2806.705811	2399.937012	73.529419
822.333435	1301.660645	3373.922607	2831.563965	73.827698
822.642273	1215.787231	4275.593750	3416.859375	71.935013
822.950989	1274.542725	5240.540039	4054.130859	70.085480
823.259705	1267.763306	6045.039063	4709.480957	72.043518
823.568359	1274.542725	6478.925781	5177.265137	74.989151
823.876953	1389.793945	6967.048340	5536.577637	74.351707
824.185486	1312.959839	7084.559570	5475.562500	72.122162
824.494019	1251.944458	6822.419434	5195.343750	70.791077
824.802429	1270.023071	6402.091797	4829.251465	69.352707
825.110840	1299.400879	5690.246094	4393.104980	70.458054
825.419189	1260.983765	5177.265137	4128.705078	73.225616
825.727478	1274.542725	4890.267090	3749.053955	68.437500
826.035767	1299.400879	4404.403809	3597.645508	74.017471
826.343933	1337.817993	4171.641602	3394.260986	72.567780
826.652100	1254.204346	4015.713623	3265.450928	72.831429
826.960144	1233.865845	3882.383789	3233.813232	75.511940
827.268250	1245.165039	3674.479736	2971.673340	71.069771
827.576233	1267.763306	3911.761719	3111.782715	69.743584
827.884155	1222.566772	3914.021484	3136.640625	71.116707
828.192017	1245.165039	4040.571777	3114.042480	66.855293
828.499878	1197.708618	3979.556396	3143.420166	69.943138
828.807678	1220.306885	3767.132568	3134.380859	75.155281
829.115479	1247.424805	3880.124023	3095.963867	70.214592
829.423096	1256.464111	3656.401123	2958.114258	70.903954
829.730835	1258.723999	3529.850830	2770.548584	66.567154
830.038330	1190.929199	3199.916016	2675.635986	73.903259
830.345947	1204.488159	3001.051025	2499.369385	72.075478
830.653442	1218.047119	2833.823730	2361.519775	70.769226
830.960876	1303.920532	2689.194824	2237.229248	67.373566
831.268250	1267.763306	2605.581299	2196.552490	69.425674
831.575623	1229.346191	2506.148926	2131.017334	70.619453
831.882874	1224.826538	2415.755615	2092.600342	72.865280
832.190125	1154.771851	2286.945557	2060.962891	80.039932
832.497314	1344.597412	2323.102783	2101.639648	77.367203
832.804504	1412.392212	2277.906250	1970.569702	64.490868
833.111572	1224.826538	2194.292725	1855.318481	65.034958
833.418640	1245.165039	2232.709717	1905.034668	66.819221
833.725586	1279.062378	2354.740479	2027.065430	69.537819
834.032532	1220.306885	2381.858398	2090.340576	74.902718
834.339417	1279.062378	2519.707764	2248.528564	78.142090
834.646301	1229.346191	2578.463379	2234.969482	74.539360
834.953003	1389.793945	2797.666504	2332.142090	66.934196
835.259827	1285.841919	2874.500732	2327.622559	65.576111
835.566467	1258.723999	2928.736572	2433.834229	70.365349
835.873108	1276.802612	2987.492188	2402.196777	65.785995
836.179688	1186.409546	2720.832520	2273.386475	70.839462
836.486267	1256.464111	2664.336670	2295.984863	73.836281
836.792664	1251.944458	2472.251465	2250.788330	81.851852
837.099121	1242.905151	2442.873535	2180.733643	78.154434
837.405518	1317.479492	2472.251465	2210.111328	77.299400
837.711792	1292.621338	2286.945557	1970.569702	68.181824
838.018127	1240.645386	2225.930176	1905.034668	67.431190
838.324341	1335.558105	2241.749023	1975.089355	70.573570
838.630554	1229.346191	2008.986694	1957.010742	93.333344
838.936646	1220.306885	1938.932129	1848.538940	87.421371
839.242737	1247.424805	2060.962891	1812.381714	69.444435
839.548767	1236.125732	2047.403809	1753.626221	63.788300
839.854797	1294.881226	1961.530396	1825.940674	79.661011
840.160645	1294.881226	1936.672241	1674.532227	59.154926
840.466553	1218.047119	1909.554321	1703.910034	70.261436
840.772400	1206.747925	2018.026001	1694.870728	60.167137
841.078186	1270.023071	2051.923584	1830.460327	71.676285
841.383850	1240.645386	1959.270508	1690.351074	62.578621
841.689575	1283.582031	1905.034668	1758.145874	76.363640
841.995178	1195.448853	1950.231201	1751.366455	73.652702
842.300781	1238.385498	2011.246582	1850.798828	79.239769
842.606262	1256.464111	1986.388428	1726.508301	64.396294
842.911743	1265.503418	1945.711548	1801.082642	78.737549
843.217163	1227.086426	1828.200562	1642.894653	69.172928
843.522583	1224.826538	1755.886108	1663.233154	82.553192
843.827881	1197.708618	1855.318481	1647.414307	68.384872
844.133179	1215.787231	1762.665527	1701.650146	88.842972
844.438354	1172.850586	1746.846802	1647.414307	82.677155
844.743530	1206.747925	1764.925415	1640.634888	77.732796
845.048645	1324.259033	1810.121948	1636.115234	64.186050
845.353760	1265.503418	1801.082642	1618.036621	65.822792
845.658752	1378.494873	1805.602295	1627.075928	58.201061
845.963745	1380.754639	1780.744141	1624.816040	61.016953
846.268555	1254.204346	1615.776733	1559.281006	84.374985
846.573486	1260.983765	1660.973267	1514.084473	63.276836
846.878296	1380.754639	1780.744141	1715.209106	83.615814
847.183044	1229.346191	1679.051880	1550.241699	71.356781
847.487732	1211.267578	1631.595581	1486.966553	65.591393
847.792419	1256.464111	1638.375000	1566.060547	81.065102
848.097046	1251.944458	1663.233154	1543.462280	70.879120
848.401611	1190.929199	1606.737427	1532.163086	82.065208
848.706055	1263.243652	1615.776733	1633.855347	105.128204
849.010559	1218.047119	1622.556274	1462.108521	60.335197
849.314941	1353.636719	1674.532227	1545.722046	59.859150
849.619324	1292.621338	1577.359619	1385.274292	32.539692
849.923584	1161.551392	1579.619507	1419.171753	61.621624
850.227844	1204.488159	1570.580200	1444.029785	65.432076
850.532043	1285.841919	1577.359619	1473.407593	64.341095
850.836243	1251.944458	1586.398926	1430.470825	53.378376
851.140320	1224.826538	1631.595581	1498.265747	67.222229
851.444397	1242.905151	1509.564819	1473.407593	86.440681
851.748352	1362.676025	1597.698120	1518.604126	66.346146
852.052307	1290.361572	1665.492920	1502.785400	56.626518
852.356140	1193.188965	1586.398926	1455.328979	66.666679
852.660095	1299.400879	1618.036621	1577.359619	87.234009
852.963806	1247.424805	1674.532227	1584.139160	78.835991
853.267578	1520.864014	1873.397095	1712.949341	54.487179
853.571228	1283.582031	1690.351074	1631.595581	85.555565
853.874939	1274.542725	1581.879272	1509.564819	76.470596
854.178467	1263.243652	1613.516968	1484.706787	63.225807
854.482056	1263.243652	1611.257080	1518.604126	73.376617
854.785461	1349.117065	1613.516968	1568.320313	82.905945
855.088989	1251.944458	1595.438354	1557.021240	88.815781
855.392273	1308.440186	1572.839966	1468.887939	60.683769
855.695679	1308.440186	1694.870728	1405.612793	25.146202
855.998901	1378.494873	1712.949341	1627.075928	74.324333
856.302185	1260.983765	1527.643433	1475.667480	80.508507
856.605286	1351.376953	1629.335693	1622.556274	97.560997
856.908508	1303.920532	1518.604126	1473.407593	78.947372
857.211548	1270.023071	1532.163086	1523.123779	96.551727
857.514587	1197.708618	1536.682739	1477.927246	82.666672
857.817566	1177.370239	1509.564819	1398.833252	66.666656
858.120483	1231.606079	1618.036621	1459.848633	59.064316
858.423340	1254.204346	1577.359619	1496.005859	74.825180
858.726196	1281.322266	1586.398926	1471.147827	62.222248
859.028931	1355.896606	1663.233154	1514.084473	51.470570
859.331665	1215.787231	1541.202393	1453.069214	72.916695
859.634277	1294.881226	1550.241699	1547.981934	99.115067
859.936890	1224.826538	1577.359619	1444.029785	62.179482
860.239441	1245.165039	1541.202393	1473.407593	77.099243
860.541992	1283.582031	1514.084473	1457.588867	75.490234
860.844421	1351.376953	1489.226440	1489.226440	100.000000
861.146912	1242.905151	1509.564819	1430.470825	70.338974
861.449219	1188.669312	1464.368286	1446.289673	93.442627
861.751526	1281.322266	1658.713501	1453.069214	45.508991
862.053772	1333.298340	1638.375000	1507.305054	57.037045
862.355957	1342.337646	1618.036621	1590.918701	90.163940
862.658081	1256.464111	1561.540894	1448.549561	62.962986
862.960266	1233.865845	1419.171753	1437.250366	109.756088
863.262207	1222.566772	1606.737427	1455.328979	60.588230
863.564331	1283.582031	1683.571533	1518.604126	58.757065
863.866211	1283.582031	1527.643433	1425.951172	58.333328
864.168091	1197.708618	1464.368286	1331.038452	50.000000
864.469910	1202.228271	1459.848633	1364.935913	63.157913
864.771729	1260.983765	1568.320313	1394.313599	43.382355
865.073425	1211.267578	1473.407593	1389.793945	68.103439
865.375122	1206.747925	1446.289673	1439.510132	97.169785
865.676819	1206.747925	1489.226440	1423.691406	76.799995
865.978333	1245.165039	1491.486206	1423.691406	72.477074
866.279907	1260.983765	1559.281006	1568.320313	103.030304
866.581360	1240.645386	1523.123779	1532.163086	103.199997
866.882874	1145.732544	1595.438354	1416.911865	60.301495
867.184143	1213.527466	1572.839966	1371.715332	44.025150
867.485535	1256.464111	1520.864014	1446.289673	71.794868
867.786743	1303.920532	1611.257080	1457.588867	50.000019
868.088013	1340.077759	1651.933960	1529.903320	60.869579
868.389160	1254.204346	1498.265747	1473.407593	89.814796
868.690308	1154.771851	1505.045166	1439.510132	81.290314
868.991333	1222.566772	1538.942627	1430.470825	65.714264
869.292358	1321.999146	1536.682739	1486.966553	76.842110
869.593323	1328.778687	1762.665527	1608.997314	64.583344
869.894287	1254.204346	1516.344360	1412.392212	60.344799
870.195068	1367.195679	1629.335693	1493.746094	48.275887
870.495911	1242.905151	1514.084473	1434.990479	70.833321
870.796692	1279.062378	1593.178467	1432.730713	48.920876
871.097412	1190.929199	1500.525513	1453.069214	84.671555
871.398010	1308.440186	1588.658813	1419.171753	39.516132
871.698669	1206.747925	1468.887939	1457.588867	95.689682
871.999207	1193.188965	1489.226440	1450.809326	87.022888
872.299683	1195.448853	1536.682739	1473.407593	81.456955
872.600159	1258.723999	1511.824707	1437.250366	70.535706
872.900574	1132.173584	1432.730713	1414.652100	93.984962
873.200867	1190.929199	1507.305054	1439.510132	78.571396
873.501160	1240.645386	1581.879272	1414.652100	50.993385
873.801392	1288.101685	1541.202393	1412.392212	49.107143
874.101624	1312.959839	1557.021240	1439.510132	51.851826
874.401733	1276.802612	1586.398926	1516.344360	77.372284
874.701843	1245.165039	1523.123779	1453.069214	74.796776
875.001831	1260.983765	1516.344360	1419.171753	61.946907
875.301819	1270.023071	1520.864014	1466.628174	78.378395
875.601746	1360.416260	1654.193848	1464.368286	35.384602
875.901672	1224.826538	1597.698120	1473.407593	66.666664
876.201477	1193.188965	1550.241699	1405.612793	59.493683
876.501282	1181.889893	1493.746094	1496.005859	100.724617
876.800964	1229.346191	1561.540894	1423.691406	58.503407
877.100647	1209.007813	1532.163086	1491.486206	87.412590
877.400208	1211.267578	1507.305054	1464.368286	85.496170
877.699829	1346.857300	1642.894653	1595.438354	83.969490
877.999329	1213.527466	1541.202393	1416.911865	62.068954
878.298767	1204.488159	1468.887939	1344.597412	52.991440
878.598206	1288.101685	1509.564819	1468.887939	81.632660
878.897583	1163.811279	1602.217773	1448.549561	64.948463
879.196838	1222.566772	1518.604126	1496.005859	92.366417
879.496155	1168.330933	1448.549561	1450.809326	100.806427
879.795288	1272.282959	1622.556274	1557.021240	81.290314
880.094482	1256.464111	1624.816040	1561.540894	82.822098
880.393555	1283.582031	1663.233154	1563.800659	73.809509
880.692627	1206.747925	1746.846802	1550.241699	63.598312
880.991577	1247.424805	1805.602295	1602.217773	63.562752
881.290588	1175.110352	1832.720215	1685.831421	77.663231
881.589355	1166.071045	1999.947388	1712.949341	65.582664
881.888306	1326.518799	2210.111328	1893.735596	64.194389
882.187012	1204.488159	2465.471924	2115.198730	72.222229
882.485840	1218.047119	2833.823730	2284.685791	66.013992
882.784424	1265.503418	2962.634033	2589.762451	78.029297
883.083069	1306.180420	3256.411621	2594.281982	66.048660
883.381592	1351.376953	3414.599609	2867.721191	73.493973
883.680176	1312.959839	3511.772217	2788.627197	67.112015
883.978638	1292.621338	3568.267822	2883.540039	69.910629
884.277039	1211.267578	3484.654297	2797.666504	69.781303
884.575378	1233.865845	3439.457520	2788.627197	70.491798
884.873779	1206.747925	3231.553467	2603.321289	68.973206
885.171997	1292.621338	3023.649414	2445.133545	66.579636
885.470276	1294.881226	3084.664795	2540.046143	69.570694
885.768311	1152.512085	2770.548584	2336.661865	73.184364
886.066528	1150.252197	2632.699219	2196.552490	70.579269
886.364502	1204.488159	2544.565918	2124.238037	68.634071
886.662537	1197.708618	2483.550537	2060.962891	67.135338
886.960510	1238.385498	2266.607178	1990.908081	73.186806
887.258362	1247.424805	2126.497803	1841.759521	67.609253
887.556213	1127.653931	2047.403809	1737.807495	66.339073
887.854004	1193.188965	1846.279175	1694.870728	76.816612
888.151733	1288.101685	1796.562988	1670.012573	75.111099
888.449402	1353.636719	1889.215942	1703.910034	65.400841
888.747009	1256.464111	1783.004028	1631.595581	71.244637
889.044617	1245.165039	1685.831421	1570.580200	73.846153
889.342163	1195.448853	1663.233154	1453.069214	55.072468
889.639648	1247.424805	1633.855347	1538.942627	75.438606
889.937012	1256.464111	1547.981934	1462.108521	70.542656
890.234436	1274.542725	1563.800659	1518.604126	84.375008
890.531738	1188.669312	1577.359619	1471.147827	72.674446
890.829041	1256.464111	1552.501587	1475.667480	74.045815
891.126221	1168.330933	1489.226440	1468.887939	93.661957
891.423401	1265.503418	1593.178467	1410.132446	44.137943
891.720459	1213.527466	1554.761353	1423.691406	61.589413
892.017578	1222.566772	1545.722046	1457.588867	72.727295
892.314514	1267.763306	1473.407593	1389.793945	59.340641
892.611511	1249.684692	1559.281006	1496.005859	79.562050
>>>>>End Processed Spectral Data<<<<<
