Jaz Data File
++++++++++++++++++++++++++++++++++++
Date: Mon Apr 25 12:37:18 2016
User: jaz
Dark Spectrum Present: Yes
Reference Spectrum Present: Yes
Processed Spectrum Present: Yes
Spectrometers: JAZA3098
Integration Time (usec): 926000 (JAZA3098)
Spectra Averaged: 1 (JAZA3098)
Boxcar Smoothing: 0 (JAZA3098)
Correct for Electrical Dark: No (JAZA3098)
Strobe/Lamp Enabled: Yes (JAZA3098)
Correct for Detector Non-linearity: No (JAZA3098)
Correct for Stray Light: No (JAZA3098)
Number of Pixels in Processed Spectrum: 2048
>>>>>Begin Processed Spectral Data<<<<<
W	D	R	S	P
190.313904	0.000000	0.000000	0.000000	0.000000
190.695511	0.000000	0.000000	0.000000	0.000000
191.077087	1247.424805	1215.787231	1197.708618	157.142853
191.458633	1213.527466	1204.488159	1220.306885	-74.999321
191.840149	1254.204346	1199.968506	1197.708618	104.166779
192.221634	1288.101685	1276.802612	1256.464111	280.001526
192.603088	1312.959839	1333.298340	1283.582031	-144.444305
192.984528	1383.014526	1401.093140	1369.455566	-75.000000
193.365921	1373.975220	1367.195679	1335.558105	566.662476
193.747284	1263.243652	1331.038452	1285.841919	33.333332
194.128616	1315.219727	1267.763306	1240.645386	157.142776
194.509918	1385.274292	1346.857300	1340.077759	117.647247
194.891190	1349.117065	1306.180420	1319.739380	68.421005
195.272446	1367.195679	1312.959839	1340.077759	50.000000
195.653656	1509.564819	1475.667480	1486.966553	66.666786
196.034836	1383.014526	1376.234985	1387.534180	-66.666069
196.416000	1346.857300	1337.817993	1333.298340	150.000000
196.797104	1337.817993	1362.676025	1353.636719	63.636276
197.178192	1353.636719	1376.234985	1421.431519	300.000000
197.559265	1317.479492	1337.817993	1358.156372	199.999405
197.940292	1342.337646	1317.479492	1317.479492	100.000000
198.321304	1324.259033	1306.180420	1299.400879	137.500336
198.702271	1303.920532	1360.416260	1321.999146	31.999966
199.083221	1312.959839	1344.597412	1290.361572	-71.428574
199.464111	1358.156372	1342.337646	1297.140991	385.716156
199.844986	1303.920532	1362.676025	1364.935913	103.846260
200.225830	1358.156372	1247.424805	1380.754639	-20.408152
200.606659	1312.959839	1342.337646	1283.582031	-100.000000
200.987427	1432.730713	1473.407593	1405.612793	-66.666664
201.368195	1373.975220	1383.014526	1331.038452	-475.000671
201.748917	1364.935913	1373.975220	1335.558105	-325.000671
202.129608	1351.376953	1283.582031	1326.518799	36.666691
202.510284	1389.793945	1369.455566	1360.416260	144.444580
202.890915	1317.479492	1263.243652	1344.597412	-50.000000
203.271515	1333.298340	1364.935913	1303.920532	-92.857338
203.652100	1333.298340	1367.195679	1319.739380	-40.000072
204.032623	1276.802612	1290.361572	1328.778687	383.333771
204.413147	1306.180420	1355.896606	1333.298340	54.545456
204.793625	1364.935913	1412.392212	1324.259033	-85.714394
205.174088	1315.219727	1297.140991	1274.542725	224.999161
205.554504	1294.881226	1308.440186	1315.219727	150.000458
205.934906	1260.983765	1333.298340	1342.337646	112.499977
206.315247	1401.093140	1315.219727	1251.944458	173.684357
206.695587	1319.739380	1236.125732	1270.023071	59.459560
207.075882	1337.817993	1412.392212	1319.739380	-24.242445
207.456146	1310.700073	1274.542725	1242.905151	187.499710
207.836380	1331.038452	1394.313599	1297.140991	-53.571526
208.216599	1310.700073	1324.259033	1299.400879	-83.333786
208.596771	1279.062378	1220.306885	1249.684692	49.999897
208.976913	1380.754639	1385.274292	1437.250366	1250.001343
209.357025	1493.746094	1480.187134	1496.005859	-16.666216
209.737106	1349.117065	1326.518799	1333.298340	69.999733
210.117157	1385.274292	1312.959839	1335.558105	68.750000
210.497177	1315.219727	1337.817993	1362.676025	209.999725
210.877167	1288.101685	1369.455566	1353.636719	80.555511
211.257126	1233.865845	1294.881226	1328.778687	155.555603
211.637070	1328.778687	1385.274292	1401.093140	128.000137
212.016968	1380.754639	1294.881226	1328.778687	60.526245
212.396835	1331.038452	1290.361572	1358.156372	-66.666664
212.776672	1204.488159	1335.558105	1335.558105	100.000000
213.156464	1301.660645	1306.180420	1299.400879	-49.997299
213.536255	1270.023071	1270.023071	1373.975220	0.000000
213.916000	1288.101685	1310.700073	1353.636719	289.998718
214.295700	1276.802612	1358.156372	1310.700073	41.666740
214.675400	1301.660645	1367.195679	1321.999146	31.034548
215.055038	1213.527466	1355.896606	1331.038452	82.539650
215.434662	1396.573486	1394.313599	1312.959839	3699.902832
215.814240	1335.558105	1419.171753	1428.211060	110.810806
216.193787	1301.660645	1401.093140	1306.180420	4.545572
216.573334	1344.597412	1392.053833	1383.014526	80.952408
216.952820	1333.298340	1355.896606	1279.062378	-240.000534
217.332275	1231.606079	1383.014526	1260.983765	19.402937
217.711716	1444.029785	1514.084473	1453.069214	12.903389
218.091125	1281.322266	1358.156372	1285.841919	5.882353
218.470505	1462.108521	1554.761353	1421.431519	-43.902599
218.849854	1353.636719	1392.053833	1285.841919	-176.470306
219.229156	1410.132446	1367.195679	1364.935913	105.263008
219.608444	1412.392212	1383.014526	1274.542725	469.231964
219.987671	1475.667480	1538.942627	1376.234985	-157.143051
220.366898	1439.510132	1362.676025	1233.865845	267.647125
220.746094	1446.289673	1421.431519	1355.896606	363.635468
221.125244	1419.171753	1446.289673	1407.872559	-41.666893
221.504364	1358.156372	1396.573486	1355.896606	-5.882185
221.883469	1321.999146	1270.023071	1231.606079	173.912842
222.262512	1317.479492	1385.274292	1349.117065	46.666668
222.641556	1272.282959	1355.896606	1342.337646	83.783798
223.020554	1364.935913	1362.676025	1303.920532	2699.929688
223.399521	1315.219727	1281.322266	1371.715332	-166.666183
223.778473	1324.259033	1371.715332	1279.062378	-95.238472
224.157364	1297.140991	1290.361572	1242.905151	800.007202
224.536240	1254.204346	1301.660645	1258.723999	9.523822
224.915085	1240.645386	1337.817993	1249.684692	9.302320
225.293900	1299.400879	1306.180420	1326.518799	399.996399
225.672684	1324.259033	1425.951172	1310.700073	-13.333342
226.051437	1308.440186	1396.573486	1355.896606	53.846188
226.430161	1288.101685	1301.660645	1260.983765	-200.000000
226.808838	1344.597412	1299.400879	1297.140991	105.000137
227.187500	1459.848633	1493.746094	1387.534180	-213.332947
227.566132	1283.582031	1430.470825	1276.802612	-4.615341
227.944717	1405.612793	1367.195679	1392.053833	35.294060
228.323288	1346.857300	1446.289673	1342.337646	-4.545455
228.701813	1383.014526	1317.479492	1310.700073	110.344727
229.080307	1227.086426	1337.817993	1281.322266	48.979565
229.458786	1285.841919	1319.739380	1324.259033	113.333313
229.837234	1301.660645	1491.486206	1340.077759	20.238115
230.215637	1294.881226	1383.014526	1274.542725	-23.076977
230.594009	1260.983765	1439.510132	1333.298340	40.506382
230.972351	1319.739380	1482.446899	1378.494873	36.111111
231.350662	1290.361572	1514.084473	1355.896606	29.292948
231.728958	1321.999146	1509.564819	1312.959839	-4.819275
232.107193	1358.156372	1507.305054	1337.817993	-13.636312
232.485413	1258.723999	1423.691406	1303.920532	27.397249
232.863602	1258.723999	1432.730713	1294.881226	20.779213
233.241760	1310.700073	1484.706787	1288.101685	-12.987079
233.619873	1281.322266	1437.250366	1247.424805	-21.739161
233.997986	1387.534180	1473.407593	1373.975220	-15.789474
234.376038	1333.298340	1464.368286	1416.911865	63.793056
234.754074	1387.534180	1491.486206	1392.053833	4.347826
235.132065	1321.999146	1439.510132	1358.156372	30.769230
235.510025	1333.298340	1505.045166	1394.313599	35.526279
235.887970	1308.440186	1468.887939	1326.518799	11.267601
236.265869	1328.778687	1480.187134	1369.455566	26.865662
236.643738	1378.494873	1425.951172	1312.959839	-138.095551
237.021576	1285.841919	1453.069214	1355.896606	41.891899
237.399384	1224.826538	1326.518799	1333.298340	106.666725
237.777161	1369.455566	1532.163086	1396.573486	16.666666
238.154892	1331.038452	1414.652100	1288.101685	-51.351387
238.532623	1267.763306	1471.147827	1303.920532	17.777767
238.910309	1315.219727	1507.305054	1353.636719	19.999962
239.287949	1267.763306	1434.990479	1303.920532	21.621622
239.665573	1380.754639	1401.093140	1394.313599	66.666466
240.043167	1319.739380	1547.981934	1326.518799	2.970269
240.420715	1294.881226	1475.667480	1306.180420	6.250030
240.798233	1360.416260	1462.108521	1355.896606	-4.444442
241.175735	1321.999146	1439.510132	1353.636719	26.923077
241.553207	1301.660645	1491.486206	1340.077759	20.238115
241.930634	1308.440186	1486.966553	1394.313599	48.101250
242.308014	1349.117065	1599.958008	1326.518799	-9.009003
242.685394	1319.739380	1602.217773	1258.723999	-21.600018
243.062729	1392.053833	1760.405762	1380.754639	-3.067500
243.440033	1272.282959	1647.414307	1321.999146	13.253008
243.817307	1303.920532	1810.121948	1387.534180	16.517860
244.194534	1355.896606	1785.263794	1410.132446	12.631576
244.571747	1364.935913	1807.862061	1351.376953	-3.061224
244.948929	1326.518799	1733.287720	1369.455566	10.555568
245.326065	1299.400879	1771.704834	1394.313599	20.095686
245.703186	1267.763306	1726.508301	1430.470825	35.467968
246.080261	1299.400879	1699.390381	1328.778687	7.344645
246.457306	1233.865845	1633.855347	1324.259033	22.598890
246.834320	1283.582031	1764.925415	1491.486206	43.192486
247.211304	1317.479492	1801.082642	1315.219727	-0.467277
247.588257	1324.259033	1801.082642	1437.250366	23.696672
247.965195	1405.612793	2002.207275	1410.132446	0.757575
248.342087	1310.700073	2112.938721	1414.652100	12.957744
248.718933	1281.322266	2067.742188	1444.029785	20.689650
249.095764	1274.542725	2063.222656	1367.195679	11.747852
249.472549	1383.014526	2171.694336	1421.431519	4.871050
249.849319	1267.763306	2081.301270	1416.911865	18.333324
250.226044	1355.896606	1972.829468	1321.999146	-5.494514
250.602737	1238.385498	1966.050049	1373.975220	18.633547
250.979401	1288.101685	1970.569702	1389.793945	14.900663
251.356033	1310.700073	1911.814209	1448.549561	22.932331
251.732635	1319.739380	1825.940674	1353.636719	6.696415
252.109207	1342.337646	1875.656860	1416.911865	13.983036
252.485748	1337.817993	1724.248413	1364.935913	7.017543
252.862244	1270.023071	1900.515015	1355.896606	13.620085
253.238724	1360.416260	1880.176514	1328.778687	-6.086955
253.615158	1247.424805	1807.862061	1355.896606	19.354853
253.991577	1290.361572	1832.720215	1371.715332	14.999993
254.367950	1340.077759	1889.215942	1303.920532	-6.584359
254.744308	1423.691406	1929.892822	1532.163086	21.428560
255.120621	1349.117065	1848.538940	1378.494873	5.882363
255.496902	1290.361572	1794.303101	1373.975220	16.591934
255.873154	1328.778687	1728.768066	1303.920532	-6.214704
256.249390	1337.817993	1755.886108	1346.857300	2.162161
256.625549	1353.636719	1721.988647	1355.896606	0.613513
257.001709	1450.809326	1844.019287	1437.250366	-3.448275
257.377838	1312.959839	1778.484375	1416.911865	22.330086
257.753937	1292.621338	1769.445068	1267.763306	-5.213254
258.129974	1312.959839	1771.704834	1270.023071	-9.359615
258.506012	1340.077759	1830.460327	1283.582031	-11.520745
258.881989	1369.455566	1929.892822	1342.337646	-4.838707
259.257935	1328.778687	1988.648315	1448.549561	18.150688
259.633911	1317.479492	2004.467041	1355.896606	5.592112
260.009766	1319.739380	2180.733643	1428.211060	12.598421
260.385651	1416.911865	2375.078857	1466.628174	5.188689
260.761475	1308.440186	2397.677002	1376.234985	6.224064
261.137299	1326.518799	2582.982910	1401.093140	5.935255
261.513062	1240.645386	2573.943604	1396.573486	11.694916
261.888763	1425.951172	2711.793213	1545.722046	9.314587
262.264496	1310.700073	2528.747070	1500.525513	15.584410
262.640137	1297.140991	2454.172852	1430.470825	11.523437
263.015808	1258.723999	2325.362549	1351.376953	8.686443
263.391388	1383.014526	2298.244629	1473.407593	9.876540
263.766998	1392.053833	2228.189941	1518.604126	15.135131
264.142517	1416.911865	2176.214111	1441.770020	3.273815
264.518036	1258.723999	2110.678955	1380.754639	14.323603
264.893524	1369.455566	2020.285889	1367.195679	-0.347231
265.268951	1394.313599	2169.434570	1403.352905	1.166180
265.644379	1292.621338	2018.026001	1349.117065	7.788167
266.019745	1231.606079	1975.089355	1326.518799	12.765952
266.395111	1315.219727	1999.947388	1405.612793	13.201317
266.770386	1299.400879	2176.214111	1457.588867	18.041241
267.145691	1233.865845	2036.104736	1412.392212	22.253517
267.520966	1297.140991	2151.355957	1335.558105	4.497359
267.896149	1310.700073	2300.504395	1396.573486	8.675797
268.271362	1283.582031	2210.111328	1353.636719	7.560979
268.646515	1251.944458	2284.685791	1360.416260	10.503288
269.021606	1326.518799	2377.338623	1387.534180	5.806455
269.396729	1317.479492	2286.945557	1335.558105	1.864801
269.771790	1290.361572	2259.827637	1373.975220	8.624711
270.146790	1306.180420	2284.685791	1450.809326	14.780594
270.521790	1450.809326	2377.338623	1547.981934	10.487807
270.896759	1303.920532	2309.543701	1373.975220	6.966296
271.271667	1353.636719	2347.960938	1453.069214	10.000008
271.646545	1281.322266	2318.583252	1297.140991	1.525048
272.021423	1335.558105	2431.574463	1394.313599	5.360823
272.396271	1231.606079	2643.998291	1403.352905	12.159995
272.771027	1294.881226	2666.596680	1416.911865	8.896207
273.145813	1310.700073	2766.029053	1430.470825	8.229806
273.520538	1401.093140	2763.769287	1559.281006	11.608618
273.895233	1283.582031	2829.304199	1444.029785	10.380116
274.269897	1288.101685	2668.856445	1477.927246	13.747956
274.644501	1376.234985	2573.943604	1444.029785	5.660375
275.019135	1337.817993	2549.085449	1484.706787	12.126867
275.393677	1251.944458	2598.801758	1328.778687	5.704704
275.768250	1290.361572	2576.203369	1410.132446	9.314589
276.142700	1258.723999	2488.070313	1396.573486	11.213235
276.517212	1317.479492	2474.511230	1337.817993	1.757817
276.891632	1362.676025	2619.140137	1326.518799	-2.877697
277.266022	1265.503418	2693.714600	1430.470825	11.550632
277.640381	1351.376953	2668.856445	1387.534180	2.744424
278.014740	1335.558105	2727.611816	1439.510132	7.467530
278.389038	1380.754639	2668.856445	1421.431519	3.157893
278.763336	1299.400879	2634.958984	1416.911865	8.798643
279.137543	1355.896606	2747.950439	1380.754639	1.785709
279.511780	1272.282959	2682.415283	1369.455566	6.891027
279.885925	1256.464111	2772.808594	1516.344360	17.138601
280.260101	1233.865845	2723.092285	1421.431519	12.594839
280.634186	1301.660645	2700.493896	1568.320313	19.063005
281.008301	1416.911865	2815.745117	1421.431519	0.323102
281.382294	1238.385498	2725.352051	1450.809326	14.285717
281.756348	1337.817993	2901.618652	1520.864014	11.705202
282.130280	1265.503418	2940.035645	1441.770020	10.526319
282.504272	1355.896606	3161.498779	1511.824707	8.635795
282.878143	1288.101685	3231.553467	1480.187134	9.883726
283.252014	1299.400879	3263.191162	1505.045166	10.471805
283.625854	1462.108521	3362.623535	1547.981934	4.518428
283.999664	1242.905151	3369.403076	1394.313599	7.120084
284.373444	1310.700073	3382.961914	1459.848633	7.197381
284.747192	1279.062378	3265.450928	1441.770020	8.191129
285.120941	1380.754639	3421.378906	1464.368286	4.097455
285.494629	1285.841919	3459.796143	1444.029785	7.276505
285.868256	1297.140991	3516.291748	1457.588867	7.230147
286.241882	1274.542725	3545.669434	1498.265747	9.850750
286.615448	1369.455566	3669.959961	1453.069214	3.634579
286.988983	1267.763306	3658.660889	1421.431519	6.427219
287.362518	1407.872559	3825.888184	1545.722046	5.700934
287.736023	1367.195679	3828.147949	1439.510132	2.938475
288.109467	1285.841919	3803.289795	1473.407593	7.450628
288.482880	1371.715332	3929.840332	1527.643433	6.095406
288.856262	1437.250366	3841.707031	1543.462280	4.417294
289.229584	1267.763306	3701.597656	1505.045166	9.749302
289.602936	1279.062378	3735.495117	1477.927246	8.095677
289.976227	1315.219727	3658.660889	1455.328979	5.978783
290.349457	1294.881226	3701.597656	1446.289673	6.291080
290.722687	1301.660645	3846.226563	1425.951172	4.884547
291.095886	1319.739380	3850.746338	1489.226440	6.696428
291.469025	1260.983765	3841.707031	1446.289673	7.180387
291.842133	1337.817993	4060.910156	1448.549561	4.066391
292.215240	1401.093140	4069.949463	1577.359619	6.604569
292.588287	1283.582031	4042.831543	1466.628174	6.633911
292.961304	1265.503418	3891.423096	1466.628174	7.659212
293.334320	1340.077759	4081.248779	1559.281006	7.996701
293.707245	1340.077759	4006.674316	1421.431519	3.050846
294.080170	1335.558105	3959.218018	1453.069214	4.478900
294.453064	1285.841919	3925.320557	1500.525513	8.133561
294.825897	1297.140991	3993.115479	1466.628174	6.286676
295.198730	1283.582031	4196.500000	1468.887939	6.361522
295.571533	1247.424805	4399.884277	1455.328979	6.594983
295.944275	1281.322266	4499.316895	1523.123779	7.514043
296.317017	1444.029785	4607.788574	1611.257080	5.285716
296.689697	1315.219727	4616.827637	1491.486206	5.338807
297.062317	1281.322266	4684.622559	1450.809326	4.980080
297.434967	1367.195679	4881.227539	1496.005859	3.665595
297.807526	1297.140991	4856.369629	1457.588867	4.507940
298.180115	1344.597412	5021.336914	1502.785400	4.302399
298.552612	1288.101685	5037.155762	1518.604126	6.148283
298.925110	1310.700073	5150.146973	1557.021240	6.415538
299.297546	1446.289673	4982.919922	1579.619507	3.769968
299.669983	1358.156372	4951.282227	1577.359619	6.100628
300.042358	1385.274292	4856.369629	1622.556274	6.835940
300.414734	1414.652100	4655.245117	1505.045166	2.789399
300.787048	1290.361572	4427.002441	1484.706787	6.195966
301.159332	1292.621338	4406.664063	1527.643433	7.547170
301.531616	1256.464111	4302.711914	1505.045166	8.160237
301.903809	1319.739380	4420.222656	1570.580200	8.090378
302.276031	1247.424805	4370.506836	1496.005859	7.959479
302.648163	1308.440186	4295.932129	1462.108521	5.143724
303.020294	1270.023071	4332.089355	1480.187134	6.863472
303.392395	1328.778687	4343.388672	1545.722046	7.196399
303.764435	1272.282959	4282.373535	1545.722046	9.084082
304.136444	1310.700073	4117.405762	1511.824707	7.165862
304.508453	1380.754639	4221.357910	1511.824707	4.614163
304.880371	1394.313599	4124.185547	1525.383667	4.801326
305.252319	1263.243652	4121.925781	1502.785400	8.379447
305.624207	1446.289673	4198.759766	1588.658813	5.172413
305.996033	1265.503418	4246.216309	1511.824707	8.263838
306.367859	1186.409546	4210.059082	1468.887939	9.342299
306.739655	1249.684692	4214.578613	1444.029785	6.554875
307.111389	1310.700073	4187.460449	1444.029785	4.634717
307.483124	1256.464111	4149.043457	1468.887939	7.343751
307.854828	1279.062378	4205.539063	1588.658813	10.579153
308.226471	1279.062378	4327.569824	1473.407593	6.375094
308.598083	1251.944458	4356.947754	1459.848633	6.695779
308.969666	1292.621338	4314.010742	1502.785400	6.955875
309.341187	1301.660645	4377.286133	1541.202393	7.788391
309.712738	1285.841919	4549.033203	1505.045166	6.717450
310.084167	1288.101685	4723.039551	1509.564819	6.447369
310.455658	1364.935913	4849.589844	1520.864014	4.474709
310.827057	1371.715332	4845.070313	1618.036621	7.091740
311.198456	1279.062378	4946.762695	1486.966553	5.668516
311.569794	1294.881226	4917.384766	1437.250366	3.930131
311.941132	1222.566772	4845.070313	1471.147827	6.862134
312.312408	1270.023071	5014.557617	1516.344360	6.578155
312.683655	1310.700073	4840.550781	1545.722046	6.658128
313.054840	1247.424805	4946.762695	1507.305054	7.025048
313.426056	1272.282959	4741.118164	1559.281006	8.273614
313.797180	1392.053833	4822.472168	1518.604126	3.689063
314.168304	1369.455566	4698.181641	1482.446899	3.394432
314.539368	1310.700073	4655.245117	1419.171753	3.243242
314.910431	1340.077759	4578.410645	1493.746094	4.745291
315.281433	1333.298340	4768.236328	1541.202393	6.052629
315.652435	1373.975220	4935.463379	1520.864014	4.124365
316.023346	1227.086426	4908.345703	1534.422974	8.348680
316.394287	1272.282959	4811.172852	1446.289673	4.916986
316.765137	1242.905151	4752.417480	1568.320313	9.272376
317.135986	1342.337646	4872.188477	1588.658813	6.978231
317.506775	1204.488159	4621.347656	1525.383667	9.391534
317.877594	1453.069214	4750.157715	1719.728760	8.087729
318.248291	1346.857300	4488.017578	1545.722046	6.330933
318.619019	1344.597412	4539.993652	1541.202393	6.152758
318.989655	1378.494873	4521.915039	1570.580200	6.110711
319.360321	1346.857300	4621.347656	1538.942627	5.866114
319.730896	1319.739380	4693.662109	1484.706787	4.889483
320.101501	1333.298340	4616.827637	1444.029785	3.372330
320.472015	1344.597412	4662.024414	1538.942627	5.858312
320.842529	1292.621338	4675.583496	1511.824707	6.479628
321.213013	1317.479492	4765.976563	1523.123779	5.963302
321.583466	1242.905151	4777.275391	1507.305054	7.480821
321.953827	1249.684692	4698.181641	1534.422974	8.256881
322.324188	1349.117065	4666.543945	1563.800659	6.471389
322.694519	1303.920532	4666.543945	1496.005859	5.712365
323.064819	1337.817993	4786.314941	1491.486206	4.456092
323.435059	1360.416260	5007.777832	1611.257080	6.877323
323.805328	1346.857300	5059.753906	1554.761353	5.599511
324.175507	1340.077759	5217.941895	1516.344360	4.545455
324.545685	1288.101685	5326.413574	1480.187134	4.756577
324.915802	1324.259033	5502.680176	1536.682739	5.083827
325.285919	1301.660645	5570.475098	1525.383667	5.240870
325.655975	1294.881226	5685.726074	1545.722046	5.712815
326.025970	1193.188965	5498.160645	1482.446899	6.719160
326.395966	1333.298340	5584.034180	1557.021240	5.263157
326.765930	1297.140991	5464.263184	1532.163086	5.639914
327.135864	1337.817993	5547.876953	1572.839966	5.582391
327.505737	1340.077759	5407.767578	1608.997314	6.611113
327.875580	1297.140991	5362.570801	1525.383667	5.614233
328.245422	1514.084473	5419.066406	1807.862061	7.523149
328.615204	1351.376953	5342.232422	1575.099854	5.605888
328.984955	1319.739380	5177.265137	1489.226440	4.393672
329.354675	1380.754639	5077.832520	1502.785400	3.300735
329.724365	1297.140991	5113.989746	1441.770020	3.789226
330.093994	1319.739380	5046.194824	1505.045166	4.972709
330.463623	1303.920532	4973.880371	1486.966553	4.987684
330.833191	1303.920532	5251.839355	1586.398926	7.155121
331.202759	1288.101685	5211.162598	1471.147827	4.665901
331.572266	1227.086426	5236.020508	1559.281006	8.286357
331.941711	1315.219727	5258.618652	1439.510132	3.151860
332.311188	1290.361572	5360.311035	1453.069214	3.997780
332.680573	1245.165039	5464.263184	1543.462280	7.070166
333.049988	1346.857300	5407.767578	1520.864014	4.284919
333.419312	1373.975220	5828.095215	1577.359619	4.566208
333.788635	1285.841919	5753.520996	1482.446899	4.400607
334.157867	1333.298340	5787.418457	1581.879272	5.580921
334.527130	1351.376953	5997.582520	1581.879272	4.961087
334.896332	1371.715332	6117.353516	1672.272461	6.333334
335.265503	1335.558105	6108.313965	1538.942627	4.261364
335.634613	1358.156372	6162.549805	1593.178467	4.891816
336.003723	1346.857300	6029.220215	1584.139160	5.067567
336.372772	1360.416260	6081.196289	1654.193848	6.223073
336.741821	1326.518799	5828.095215	1468.887939	3.162651
337.110809	1407.872559	5837.134766	1491.486206	1.887756
337.479797	1340.077759	5866.512695	1559.281006	4.842735
337.848724	1319.739380	5986.283203	1649.674194	7.070218
338.217590	1317.479492	6033.739746	1575.099854	5.462387
338.586487	1270.023071	5819.056152	1450.809326	3.974169
338.955292	1324.259033	5884.591309	1613.516968	6.342914
339.324036	1315.219727	5909.449219	1514.084473	4.328577
339.692841	1315.219727	5963.685059	1586.398926	5.833736
340.061523	1337.817993	5825.835449	1509.564819	3.826786
340.430237	1294.881226	5961.425293	1500.525513	4.406779
340.798859	1444.029785	5945.606445	1631.595581	4.166669
341.167511	1303.920532	6106.054199	1588.658813	5.929412
341.536072	1254.204346	5850.693848	1572.839966	6.932152
341.904663	1312.959839	5986.283203	1575.099854	5.609285
342.273102	1351.376953	5993.062988	1538.942627	4.040895
342.641632	1489.226440	6302.659180	1611.257080	2.535210
343.010040	1247.424805	6033.739746	1581.879272	6.987724
343.378510	1218.047119	6191.927734	1545.722046	6.587913
343.746826	1242.905151	6354.635254	1649.674194	7.957561
344.115204	1310.700073	6309.438477	1563.800659	5.063290
344.483490	1267.763306	6460.847168	1557.021240	5.570061
344.851776	1306.180420	6560.279785	1606.737427	5.720428
345.220001	1358.156372	6874.395508	1559.281006	3.646046
345.588196	1263.243652	6609.995605	1547.981934	5.325444
345.956329	1308.440186	6921.852051	1547.981934	4.267311
346.324524	1249.684692	6901.513672	1550.241699	5.317872
346.692596	1331.038452	6980.607422	1584.139160	4.480000
347.060669	1448.549561	7059.701660	1731.027954	5.034231
347.428680	1362.676025	6817.899902	1577.359619	3.935377
347.796692	1315.219727	6720.727539	1507.305054	3.553511
348.164612	1306.180420	6684.570313	1464.368286	2.941175
348.532562	1371.715332	6587.397461	1615.776733	4.679377
348.900421	1364.935913	6639.373535	1740.067261	7.112253
349.268311	1283.582031	6325.257324	1545.722046	5.199462
349.636108	1328.778687	6465.366699	1618.036621	5.631325
350.003906	1321.999146	6524.122559	1586.398926	5.082536
350.371643	1274.542725	6422.430176	1523.123779	4.828797
350.739380	1432.730713	6677.790527	1699.390381	5.084016
351.107025	1249.684692	6738.806152	1620.296387	6.751749
351.474701	1265.503418	6526.382324	1545.722046	5.326460
351.842285	1285.841919	6817.899902	1620.296387	6.045751
352.209900	1310.700073	6659.711914	1613.516968	5.661175
352.577393	1410.132446	6813.380371	1649.674194	4.433292
352.944946	1335.558105	6628.074219	1550.241699	4.056362
353.312378	1326.518799	6759.144531	1645.154541	5.865225
353.679840	1279.062378	6896.993652	1523.123779	4.344329
354.047211	1274.542725	7224.668945	1604.477661	5.545008
354.414612	1211.267578	7294.723633	1665.492920	7.466568
354.781891	1249.684692	7583.981445	1611.257080	5.708169
355.149231	1274.542725	7482.289063	1667.752808	6.334184
355.516449	1245.165039	7581.721680	1710.689453	7.346646
355.883698	1335.558105	8017.868164	1570.580200	3.517079
356.250854	1312.959839	7895.837891	1672.272461	5.458291
356.618011	1335.558105	8130.859863	1735.547607	5.886265
356.985168	1288.101685	8142.158691	1520.864014	3.395979
357.352234	1340.077759	8442.715820	1740.067261	5.631562
357.719269	1236.125732	9037.050781	1636.115234	5.127462
358.086304	1220.306885	9107.105469	1746.846802	6.676219
358.453278	1281.322266	9351.166992	1674.532227	4.872584
358.820190	1175.110352	9391.843750	1706.169800	6.463146
359.187103	1272.282959	9389.583984	1645.154541	4.593542
359.554016	1254.204346	9504.834961	1629.335693	4.546699
359.920837	1254.204346	9202.017578	1620.296387	4.606198
360.287628	1294.881226	9190.718750	1670.012573	4.751001
360.654388	1270.023071	9251.734375	1642.894653	4.671574
361.021149	1297.140991	9633.645508	1672.272461	4.499865
361.387848	1403.352905	9963.580078	1742.327148	3.959874
361.754486	1326.518799	10585.032227	1719.728760	4.247010
362.121124	1285.841919	11353.374023	1740.067261	4.511785
362.487732	1360.416260	11651.670898	1764.925415	3.930611
362.854279	1335.558105	11728.504883	1771.704834	4.196564
363.220795	1439.510132	11620.033203	1844.019287	3.973363
363.587311	1398.833252	11391.791016	1819.161255	4.206242
363.953735	1301.660645	10917.227539	1710.689453	4.253819
364.320160	1297.140991	10329.671875	1735.547607	4.853641
364.686554	1306.180420	9581.668945	1712.949341	4.915347
365.052887	1301.660645	9174.900391	1744.586914	5.625718
365.419189	1321.999146	8903.720703	1651.933960	4.351714
365.785492	1260.983765	8673.218750	1606.737427	4.664634
366.151703	1308.440186	8607.683594	1642.894653	4.582043
366.517944	1396.573486	8557.966797	1665.492920	3.755127
366.884094	1482.446899	8594.124023	1780.744141	4.194471
367.250214	1288.101685	8562.487305	1692.610840	5.560733
367.616333	1321.999146	8426.897461	1715.209106	5.534350
367.982361	1283.582031	8404.298828	1651.933960	5.172961
368.348419	1290.361572	8230.291992	1590.918701	4.330838
368.714386	1260.983765	8273.228516	1577.359619	4.511763
369.080383	1414.652100	8309.385742	1699.390381	4.129794
369.446289	1441.770020	8218.993164	1805.602295	5.368456
369.812195	1419.171753	7959.112793	1789.783447	5.666897
370.178009	1211.267578	8155.717773	1552.501587	4.913765
370.543854	1254.204346	8092.442871	1649.674194	5.783213
370.909607	1249.684692	8094.702637	1629.335693	5.546384
371.275360	1242.905151	8302.606445	1681.311768	6.209988
371.641052	1389.793945	8492.432617	1667.752808	3.913459
372.006744	1306.180420	8589.604492	1638.375000	4.560967
372.372375	1333.298340	8548.927734	1706.169800	5.167553
372.737976	1283.582031	8634.801758	1651.933960	5.010759
373.103546	1321.999146	8544.408203	1701.650146	5.256570
373.469055	1321.999146	8304.866211	1672.272461	5.016182
373.834595	1389.793945	8551.187500	1783.004028	5.490692
374.199982	1315.219727	8528.589844	1703.910034	5.388470
374.565460	1306.180420	8530.849609	1690.351074	5.317484
374.930817	1204.488159	8548.927734	1615.776733	5.599999
375.296204	1276.802612	8788.469727	1633.855347	4.753309
375.661499	1238.385498	8731.973633	1712.949341	6.332932
376.026825	1351.376953	9075.467773	1816.901367	6.026916
376.391998	1308.440186	8903.720703	1631.595581	4.254687
376.757263	1333.298340	9192.978516	1742.327148	5.204141
377.122406	1279.062378	9825.730469	1717.468994	5.129562
377.487549	1229.346191	9595.228516	1749.106567	6.212857
377.852631	1197.708618	10092.389648	1697.130493	5.614838
378.217743	1342.337646	10350.010742	1762.665527	4.666332
378.582764	1285.841919	10494.639648	1737.807495	4.907976
378.947754	1321.999146	10388.427734	1801.082642	5.284148
379.312714	1315.219727	10200.862305	1753.626221	4.933875
379.677673	1328.778687	9570.370117	1667.752808	4.112969
380.042542	1331.038452	9468.677734	1724.248413	4.831991
380.407379	1333.298340	9310.490234	1715.209106	4.787534
380.772186	1254.204346	9208.797852	1640.634888	4.857955
381.136993	1224.826538	9258.513672	1685.831421	5.738397
381.501740	1285.841919	9192.978516	1699.390381	5.230066
381.866486	1263.243652	9312.750000	1733.287720	5.839415
382.231110	1294.881226	8844.964844	1690.351074	5.237953
382.595764	1213.527466	9179.419922	1649.674194	5.475177
382.960327	1301.660645	9034.791016	1622.556274	4.149621
383.324951	1229.346191	8996.374023	1665.492920	5.615362
383.689453	1267.763306	9362.465820	1636.115234	4.550531
384.053986	1301.660645	9448.338867	1785.263794	5.936201
384.418396	1288.101685	9633.645508	1694.870728	4.874087
384.782867	1328.778687	9769.234375	1663.233154	3.962517
385.147217	1292.621338	10060.752930	1871.137207	6.597938
385.511597	1249.684692	9898.044922	1749.106567	5.774758
385.875885	1258.723999	9889.005859	1749.106567	5.682115
386.240204	1403.352905	10013.295898	1787.523682	4.461943
386.604401	1209.007813	10024.595703	1749.106567	6.126634
386.968628	1380.754639	10058.493164	1733.287720	4.062500
387.332764	1283.582031	10146.625977	1681.311768	4.487507
387.696930	1367.195679	10329.671875	1785.263794	4.664649
388.061005	1455.328979	10494.639648	1848.538940	4.349999
388.425140	1301.660645	10557.915039	1819.161255	5.590821
388.789124	1294.881226	10566.954102	1853.058594	6.019984
389.153168	1319.739380	10465.261719	1792.043335	5.164319
389.517090	1233.865845	10331.931641	1755.886108	5.737706
389.881042	1249.684692	10302.553711	1783.004028	5.891164
390.244873	1299.400879	10325.152344	1740.067261	4.882323
390.608734	1364.935913	10747.740234	1882.436401	5.515414
390.972534	1317.479492	10578.252930	1737.807495	4.538800
391.336304	1288.101685	10743.220703	1758.145874	4.971320
391.700043	1319.739380	11041.517578	1769.445068	4.625755
392.063751	1197.708618	11432.467773	1715.209106	5.056304
392.427399	1222.566772	11427.948242	1814.641602	5.801594
392.791077	1457.588867	11730.765625	1920.853516	4.509459
393.154663	1355.896606	11739.804688	1853.058594	4.787812
393.518219	1251.944458	11608.734375	1789.783447	5.193105
393.881744	1331.038452	11418.909180	1832.720215	4.973118
394.245209	1260.983765	11337.554688	1740.067261	4.754430
394.608704	1279.062378	11344.334961	1735.547607	4.535250
394.972107	1306.180420	11590.656250	1873.397095	5.515271
395.335480	1362.676025	11683.308594	1886.956055	5.079921
395.698792	1324.259033	11549.978516	1868.877441	5.325966
396.062103	1401.093140	11421.168945	1945.711548	5.435272
396.425385	1360.416260	11068.635742	1877.916748	5.330540
396.788635	1335.558105	10969.203125	1733.287720	4.128548
397.151825	1251.944458	10711.583008	1769.445068	5.470617
397.514984	1312.959839	10519.497070	1780.744141	5.081002
397.878113	1398.833252	10363.569336	1798.822754	4.461810
398.241180	1310.700073	10298.034180	1649.674194	3.771687
398.604248	1276.802612	10155.665039	1685.831421	4.606771
398.967285	1274.542725	10304.813477	1764.925415	5.430432
399.330231	1251.944458	10302.553711	1841.759521	6.516855
399.693176	1326.518799	10309.333984	1703.910034	4.201258
400.056091	1301.660645	10216.680664	1792.043335	5.500635
400.418976	1245.165039	10176.003906	1751.366455	5.668016
400.781830	1310.700073	10056.232422	1776.224487	5.322997
401.144592	1222.566772	10257.357422	1692.610840	5.202600
401.507355	1371.715332	10282.215820	1749.106567	4.235354
401.870087	1256.464111	10196.341797	1699.390381	4.954500
402.232758	1308.440186	10246.058594	1805.602295	5.562580
402.595428	1439.510132	10318.373047	1753.626221	3.537796
402.958038	1333.298340	10575.993164	1846.279175	5.550122
403.320618	1301.660645	10718.362305	1755.886108	4.823616
403.683167	1312.959839	10763.558594	1875.656860	5.954089
404.045654	1396.573486	11000.840820	1889.215942	5.129412
404.408142	1285.841919	10885.589844	1803.342407	5.390771
404.770569	1238.385498	10926.266602	1735.547607	5.131794
405.132996	1396.573486	11638.112305	1918.593628	5.097087
405.495331	1288.101685	11601.955078	1812.381714	5.083261
405.857666	1403.352905	11827.937500	1855.318481	4.335574
406.219940	1211.267578	11827.937500	1825.940674	5.789698
406.582214	1265.503418	11723.985352	1812.381714	5.229041
406.944427	1306.180420	11642.631836	1787.523682	4.656755
407.306549	1249.684692	11385.011719	1792.043335	5.351171
407.668732	1333.298340	11412.129883	1871.137207	5.336321
408.030792	1292.621338	11064.116211	1760.405762	4.787235
408.392914	1272.282959	11208.745117	1819.161255	5.503753
408.754883	1324.259033	10991.801758	1911.814209	6.077606
409.116943	1301.660645	11493.483398	1819.161255	5.077606
409.478882	1281.322266	11448.287109	1755.886108	4.667704
409.840820	1360.416260	11495.743164	1873.397095	5.061315
410.202667	1236.125732	11552.238281	1810.121948	5.564075
410.564575	1319.739380	11934.149414	1821.421021	4.726420
410.926331	1272.282959	11850.536133	1819.161255	5.169836
411.288147	1335.558105	11678.789063	1773.964722	4.238585
411.649872	1274.542725	11841.497070	1731.027954	4.319932
412.011566	1233.865845	11751.103516	1798.822754	5.371724
412.373199	1301.660645	11586.135742	1866.617554	5.493299
412.734894	1369.455566	11247.162109	1844.019287	4.804391
413.096436	1303.920532	11192.925781	1773.964722	4.753200
413.458008	1328.778687	11333.035156	1848.538940	5.195391
413.819519	1260.983765	11446.027344	1819.161255	5.480364
414.181030	1218.047119	11439.247070	1769.445068	5.394650
414.542450	1290.361572	11378.232422	1787.523682	4.928316
414.903870	1378.494873	11511.561523	1850.798828	4.661017
415.265198	1362.676025	11653.930664	1740.067261	3.667106
415.626587	1270.023071	11789.520508	1735.547607	4.425350
415.987854	1274.542725	11766.922852	1810.121948	5.104459
416.349152	1279.062378	12051.661133	1819.161255	5.013636
416.710327	1308.440186	12049.400391	1837.239868	4.923207
417.071533	1331.038452	11983.866211	1871.137207	5.070004
417.432678	1281.322266	12765.766602	1875.656860	5.175127
417.793823	1274.542725	12948.812500	1839.499634	4.839334
418.154877	1231.606079	13393.998047	1900.515015	5.499814
418.515930	1202.228271	13735.232422	1954.750854	6.004327
418.876923	1265.503418	14523.912109	1950.231201	5.164480
419.237915	1385.274292	14652.722656	1999.947388	4.632941
419.598816	1340.077759	15002.995117	2031.585083	5.061198
419.959717	1238.385498	15918.225586	2036.104736	5.434114
420.320526	1242.905151	16697.867188	1999.947388	4.898376
420.681396	1303.920532	16982.605469	2140.056641	5.332948
421.042145	1292.621338	17434.570313	2065.482422	4.787904
421.402924	1202.228271	18069.582031	2149.095947	5.613611
421.763580	1301.660645	18521.546875	2128.757568	4.803150
422.124298	1331.038452	19217.574219	2144.576416	4.548326
422.484894	1425.951172	19251.470703	2212.371338	4.411766
422.845520	1299.400879	19118.142578	2187.513184	4.984147
423.206055	1220.306885	18987.072266	2230.449951	5.685576
423.566589	1233.865845	18715.892578	2119.718262	5.067218
423.927063	1321.999146	18783.687500	2151.355957	4.749580
424.287506	1331.038452	18614.199219	2056.443115	4.197176
424.647949	1242.905151	18797.246094	2173.954102	5.303810
425.008301	1229.346191	18792.726563	2029.325195	4.554812
425.368652	1310.700073	19183.675781	2185.253418	4.893160
425.728943	1346.857300	18860.521484	2103.899414	4.322580
426.089203	1260.983765	19312.486328	2117.458496	4.744617
426.449432	1240.645386	18966.732422	2040.624390	4.513004
426.809601	1331.038452	18666.175781	2115.198730	4.523531
427.169739	1215.787231	18415.335938	2063.222656	4.927079
427.529846	1340.077759	18376.917969	2180.733643	4.934341
427.889954	1432.730713	17755.464844	2234.969482	4.914855
428.250000	1231.606079	17373.554688	2018.026001	4.871902
428.609985	1233.865845	16776.960938	2036.104736	5.161385
428.969940	1240.645386	16645.890625	2038.364502	5.178231
429.329865	1385.274292	16460.583984	1975.089355	3.912457
429.689789	1342.337646	16001.838867	2056.443115	4.871281
430.049622	1245.165039	15974.721680	2036.104736	5.369745
430.409454	1290.361572	15812.013672	1979.609009	4.746343
430.769226	1290.361572	15746.478516	2063.222656	5.346256
431.128937	1279.062378	15332.930664	2008.986694	5.193761
431.488678	1360.416260	15615.409180	1963.790161	4.232720
431.848328	1364.935913	15701.282227	1968.309814	4.208701
432.207947	1340.077759	15595.070313	2040.624390	4.914395
432.567566	1349.117065	15425.583008	2045.144043	4.944614
432.927124	1335.558105	15800.714844	2018.026001	4.718013
433.286621	1297.140991	16099.011719	1988.648315	4.671756
433.646118	1315.219727	16487.703125	2013.506348	4.602323
434.005554	1326.518799	16304.656250	2042.884155	4.782740
434.364960	1337.817993	16399.568359	2101.639648	5.071268
434.724335	1249.684692	16501.261719	2002.207275	4.934064
435.083649	1362.676025	16419.908203	2115.198730	4.997749
435.442932	1283.582031	16406.347656	1986.388428	4.647340
435.802216	1414.652100	16415.388672	2101.639648	4.579692
436.161407	1371.715332	15981.500977	2031.585083	4.516629
436.520630	1308.440186	16080.933594	1990.908081	4.619856
436.879761	1256.464111	16358.892578	1981.868774	4.803232
437.238831	1335.558105	16433.466797	2110.678955	5.133962
437.597931	1326.518799	16767.919922	2074.521729	4.844139
437.956940	1290.361572	16259.459961	2072.261963	5.223430
438.315948	1303.920532	16720.464844	2106.159424	5.203753
438.674896	1373.975220	16865.093750	2056.443115	4.405543
439.033844	1288.101685	16474.142578	2045.144043	4.985120
439.392700	1362.676025	16478.662109	1993.167969	4.171028
439.751556	1274.542725	16982.605469	2067.742188	5.049633
440.110352	1263.243652	17814.220703	2020.285889	4.574003
440.469116	1299.400879	17936.251953	2112.938721	4.889975
440.827850	1283.582031	18180.312500	2151.355957	5.135751
441.186554	1294.881226	18876.339844	2180.733643	5.038560
441.545197	1285.841919	18989.332031	2173.954102	5.016594
441.903809	1383.014526	19231.132813	2221.410645	4.697392
442.262390	1274.542725	18993.851563	2137.796875	4.871828
442.620941	1290.361572	18883.119141	2135.537109	4.804111
442.979462	1256.464111	18591.601563	2173.954102	5.292661
443.337921	1333.298340	18345.281250	2140.056641	4.742294
443.696350	1362.676025	18214.210938	2081.301270	4.264450
444.054718	1267.763306	18220.990234	2029.325195	4.492136
444.413086	1410.132446	18137.376953	2244.008789	4.985139
444.771423	1376.234985	18801.765625	2151.355957	4.448191
445.129669	1376.234985	17938.511719	2151.355957	4.680038
445.487915	1254.204346	17269.603516	2045.144043	4.938620
445.846130	1294.881226	17800.662109	2060.962891	4.641293
446.204285	1281.322266	17891.054688	2056.443115	4.666667
446.562408	1383.014526	18661.656250	2149.095947	4.433690
446.920532	1285.841919	19344.125000	2126.497803	4.655237
447.278595	1364.935913	20300.031250	2277.906250	4.821578
447.636566	1349.117065	20288.732422	2155.875488	4.259634
447.994568	1342.337646	20919.224609	2234.969482	4.559621
448.352509	1299.400879	21016.396484	2291.465088	5.031518
448.710419	1218.047119	20889.845703	2212.371338	5.054567
449.068237	1290.361572	20792.673828	2250.788330	4.924681
449.426056	1312.959839	20505.675781	2298.244629	5.133639
449.783844	1272.282959	20390.423828	2207.851563	4.893617
450.141602	1331.038452	19906.822266	2219.150635	4.781022
450.499329	1276.802612	19782.531250	2137.796875	4.652582
450.856964	1263.243652	18923.796875	2223.670410	5.438260
451.214630	1346.857300	18971.251953	2137.796875	4.487755
451.572235	1240.645386	18605.160156	2189.772949	5.465903
451.929779	1229.346191	18460.531250	2110.678955	5.114754
452.287323	1306.180420	18327.201172	2187.513184	5.177907
452.644806	1263.243652	18458.271484	2146.836182	5.138651
453.002258	1410.132446	18546.404297	2171.694336	4.444151
453.359650	1364.935913	18311.382813	2180.733643	4.813975
453.717010	1414.652100	18191.611328	2189.772949	4.620151
454.074341	1297.140991	17952.070313	2126.497803	4.979648
454.431641	1306.180420	17615.355469	2160.395264	5.237634
454.788910	1283.582031	17289.941406	2133.277344	5.308486
455.146118	1378.494873	17265.082031	2074.521729	4.381223
455.503296	1308.440186	16946.447266	2162.655029	5.462428
455.860443	1274.542725	17161.130859	2142.316650	5.462305
456.217560	1319.739380	17059.439453	2074.521729	4.795405
456.574615	1364.935913	16842.496094	2205.591797	5.431449
456.931641	1473.407593	17050.398438	2332.142090	5.512839
457.288635	1326.518799	16930.628906	2142.316650	5.228096
457.645599	1308.440186	16991.644531	2060.962891	4.798272
458.002502	1321.999146	17195.027344	2056.443115	4.626993
458.359375	1288.101685	17362.255859	2027.065430	4.597217
458.716217	1260.983765	17938.511719	2194.292725	5.596207
459.073029	1285.841919	18670.695313	2155.875488	5.004550
459.429779	1315.219727	20250.314453	2318.583252	5.298963
459.786499	1283.582031	20636.746094	2314.063477	5.324615
460.143219	1292.621338	22417.490234	2402.196777	5.252460
460.499847	1258.723999	22295.458984	2341.181396	5.145558
460.856476	1297.140991	23228.767578	2393.157471	4.997425
461.213043	1254.204346	23203.910156	2377.338623	5.116854
461.569550	1233.865845	22514.662109	2375.078857	5.362642
461.926056	1362.676025	22340.656250	2481.290771	5.332328
462.282501	1344.597412	21409.607422	2372.819092	5.124452
462.638916	1319.739380	20869.507813	2151.355957	4.253844
462.995331	1276.802612	20184.779297	2264.347168	5.222899
463.351654	1292.621338	19911.341797	2196.552490	4.854959
463.707947	1281.322266	19204.015625	2221.410645	5.245241
464.064209	1312.959839	19023.228516	2207.851563	5.052954
464.420441	1267.763306	18736.230469	2131.017334	4.941785
464.776642	1276.802612	18279.746094	2110.678955	4.904306
465.132782	1349.117065	18480.871094	2241.749023	5.210394
465.488892	1315.219727	18363.359375	2103.899414	4.626192
465.844971	1367.195679	18632.279297	2158.135254	4.581151
466.201019	1333.298340	18634.539063	2117.458496	4.532393
466.557007	1260.983765	18584.822266	2117.458496	4.943909
466.912964	1315.219727	19179.156250	2314.063477	5.591397
467.268890	1306.180420	19100.062500	2187.513184	4.953010
467.624756	1279.062378	19576.886719	2151.355957	4.767199
467.980591	1410.132446	19628.863281	2155.875488	4.093277
468.336426	1290.361572	19619.824219	2273.386475	5.363086
468.692169	1256.464111	19427.738281	2119.718262	4.750653
469.047913	1283.582031	18968.992188	2203.332031	5.200614
469.403625	1267.763306	18661.656250	2176.214111	5.222815
469.759247	1211.267578	18444.712891	2072.261963	4.996067
470.114838	1294.881226	18074.101563	2090.340576	4.740741
470.470459	1297.140991	18392.736328	2198.812256	5.274290
470.825958	1254.204346	18388.216797	2144.576416	5.196518
471.181488	1364.935913	18173.533203	2176.214111	4.826567
471.536926	1288.101685	18259.406250	2153.615723	5.099867
471.892365	1349.117065	18164.494141	2090.340576	4.408010
472.247742	1360.416260	18266.187500	2207.851563	5.012698
472.603058	1310.700073	18584.822266	2110.678955	4.631083
472.958374	1340.077759	18747.529297	2207.851563	4.985071
473.313629	1364.935913	19097.802734	2185.253418	4.625972
473.668884	1398.833252	19181.416016	2221.410645	4.625748
474.024048	1283.582031	19429.998047	2225.930176	5.193026
474.379211	1276.802612	19237.912109	2128.757568	4.743331
474.734314	1303.920532	19420.958984	2126.497803	4.540351
475.089417	1285.841919	19170.117188	2291.465088	5.622946
475.444458	1308.440186	19301.187500	2097.120117	4.383321
475.799438	1267.763306	19161.078125	2201.072021	5.215963
476.154388	1274.542725	19156.558594	2201.072021	5.181347
476.509308	1267.763306	19992.695313	2214.631104	5.056722
476.864197	1315.219727	19985.916016	2216.890869	4.829339
477.219025	1288.101685	20440.140625	2232.709717	4.932154
477.573822	1285.841919	20898.886719	2259.827637	4.966010
477.928619	1276.802612	21328.253906	2284.685791	5.026485
478.283325	1279.062378	21500.000000	2377.338623	5.431381
478.638000	1360.416260	21890.949219	2350.220703	4.821134
478.992676	1186.409546	22340.656250	2384.118164	5.661788
479.347260	1500.525513	22464.947266	2438.354004	4.473429
479.701843	1263.243652	22611.835938	2379.598389	5.229173
480.056366	1292.621338	22831.039063	2295.984863	4.658483
480.410858	1310.700073	23502.207031	2393.157471	4.877800
480.765320	1333.298340	24261.509766	2418.015625	4.730928
481.119751	1260.983765	24659.238281	2390.897705	4.829052
481.474091	1251.944458	25714.578125	2472.251465	4.988453
481.828430	1242.905151	26957.484375	2528.747070	5.000439
482.182709	1281.322266	28835.400391	2655.297363	4.986467
482.536987	1312.959839	30948.339844	2793.146973	4.994662
482.891174	1324.259033	33773.125000	2915.177734	4.902849
483.245361	1213.527466	38064.535156	3055.286865	4.997854
483.599518	1274.542725	43569.476563	3294.828613	4.776662
483.953644	1220.306885	49169.328125	3624.763428	5.014610
484.307678	1294.881226	52491.277344	3895.942871	5.080556
484.661713	1337.817993	54581.617188	4128.705078	5.241713
485.015686	1285.841919	55395.156250	4069.949463	5.145339
485.369659	1294.881226	55081.039063	3956.958252	4.949372
485.723572	1301.660645	52983.917969	3803.289795	4.840402
486.077423	1276.802612	50186.250000	3697.077881	4.948482
486.431274	1209.007813	47763.714844	3475.614990	4.868696
486.785034	1315.219727	46301.609375	3459.796143	4.767167
487.138794	1292.621338	46039.468750	3495.953369	4.923994
487.492523	1351.376953	46536.628906	3577.307129	4.926232
487.846191	1297.140991	47350.167969	3453.016602	4.681289
488.199829	1306.180420	47899.304688	3767.132568	5.281793
488.553436	1337.817993	47838.289063	3740.014648	5.165962
488.906982	1292.621338	47117.406250	3703.857422	5.261860
489.260529	1319.739380	45698.234375	3495.953369	4.903758
489.613983	1303.920532	44161.550781	3480.134521	5.077775
489.967438	1355.896606	42073.468750	3398.780762	5.017205
490.320831	1367.195679	40561.644531	3308.387695	4.952722
490.674194	1331.038452	39635.117188	3364.883301	5.309734
491.027527	1274.542725	40084.820313	3145.679932	4.821241
491.380798	1215.787231	40624.921875	3213.474854	5.069098
491.734070	1294.881226	42455.382813	3344.544922	4.979686
492.087250	1247.424805	43018.078125	3272.230469	4.847436
492.440430	1240.645386	43273.437500	3401.040527	5.139785
492.793549	1324.259033	42362.726563	3473.354980	5.236784
493.146637	1353.636719	41440.718750	3407.820068	5.124302
493.499695	1245.165039	39562.800781	3168.278320	5.018872
493.852692	1396.573486	36606.949219	3100.483398	4.839227
494.205658	1288.101685	33892.894531	3120.822021	5.621015
494.558594	1274.542725	32220.623047	2921.957031	5.323499
494.911499	1258.723999	30426.318359	2894.839111	5.609359
495.264374	1317.479492	29646.677734	2634.958984	4.650606
495.617188	1358.156372	28387.955078	2695.974365	4.949419
495.969940	1267.763306	27829.777344	2689.194824	5.351369
496.322693	1351.376953	27644.470703	2621.400146	4.830254
496.675385	1256.464111	28284.001953	2684.675293	5.284282
497.028015	1333.298340	27847.855469	2729.871826	5.267195
497.380676	1285.841919	27687.408203	2804.446045	5.751947
497.733246	1265.503418	28204.908203	2752.469971	5.519671
498.085785	1911.814209	28564.220703	3279.009766	5.129726
498.438263	1410.132446	28067.058594	2741.170898	4.993218
498.790710	1274.542725	27841.076172	2856.422119	5.954407
499.143158	1283.582031	27382.332031	2750.210205	5.619534
499.495544	1267.763306	27167.648438	2743.430664	5.697583
499.847870	1258.723999	26632.068359	2770.548584	5.958318
500.200165	1285.841919	26186.882813	2612.360840	5.327163
500.552429	1319.739380	25680.681641	2698.234131	5.658627
500.904663	1312.959839	25183.519531	2675.635986	5.708606
501.256866	1430.470825	24928.158203	2709.533203	5.443354
501.609009	1419.171753	24247.951172	2702.753906	5.622649
501.961090	1337.817993	24410.658203	2727.611816	6.023506
502.313171	1260.983765	24195.974609	2680.155518	6.187802
502.665253	1272.282959	24071.683594	2526.487305	5.501041
503.017181	1326.518799	23981.291016	2621.400146	5.715712
503.369110	1285.841919	23658.134766	2612.360840	5.929294
503.721069	1373.975220	23979.031250	2698.234131	5.858242
504.072937	1331.038452	23814.062500	2614.620605	5.709117
504.424774	1346.857300	24037.787109	2668.856445	5.826113
504.776520	1206.747925	23793.724609	2691.454590	6.573287
505.128265	1242.905151	23888.638672	2736.651123	6.596147
505.480042	1324.259033	24247.951172	2811.225586	6.486593
505.831665	1333.298340	23852.480469	2754.729980	6.312093
506.183289	1240.645386	23967.732422	2745.690430	6.622252
506.534882	1303.920532	23825.363281	2820.264893	6.732892
506.886505	1317.479492	23554.183594	2804.446045	6.686992
507.237946	1283.582031	23450.230469	2729.871826	6.524621
507.589417	1233.865845	23820.843750	2790.887207	6.893447
507.940857	1279.062378	23956.431641	2903.878418	7.164923
508.292297	1272.282959	24062.644531	2813.485352	6.762518
508.643616	1224.826538	24234.390625	2980.712646	7.631114
508.994904	1204.488159	24580.144531	2992.011719	7.646945
509.346191	1351.376953	24471.673828	3134.380859	7.711855
509.697479	1229.346191	24555.287109	2969.413574	7.459795
510.048645	1321.999146	24788.048828	3156.979248	7.819723
510.399780	1387.534180	25043.410156	3111.782715	7.288881
510.750916	1238.385498	25529.273438	3143.420166	7.842589
511.102051	1229.346191	25653.562500	3156.979248	7.892303
511.453033	1303.920532	25771.074219	3306.127686	8.183245
511.804016	1242.905151	25931.521484	3340.025146	8.494279
512.154968	1317.479492	25809.490234	3355.843994	8.322569
512.505920	1276.802612	26378.966797	3430.418213	8.579403
512.856750	1279.062378	26166.542969	3371.662842	8.408246
513.207581	1331.038452	25809.490234	3373.922607	8.345643
513.558411	1254.204346	26243.378906	3464.315674	8.844275
513.909180	1306.180420	26225.298828	3468.835449	8.678698
514.259888	1274.542725	25834.349609	3523.071289	9.155318
514.610535	1317.479492	25890.845703	3586.346436	9.233032
514.961182	1236.125732	25551.871094	3464.315674	9.163568
515.311829	1385.274292	25133.802734	3425.898682	8.592635
515.662354	1326.518799	25592.546875	3613.464355	9.424475
516.012878	1317.479492	25441.138672	3552.448975	9.264637
516.363281	1245.165039	25502.154297	3547.929443	9.493200
516.713745	1294.881226	25906.664063	3665.440430	9.631805
517.064209	1315.219727	26347.330078	3782.951416	9.858265
517.414490	1285.841919	26794.775391	3927.580322	10.356130
517.764832	1310.700073	27504.361328	3701.597656	9.127770
518.115173	1258.723999	27807.179688	4076.729004	10.614572
518.465393	1254.204346	29106.580078	4325.310059	11.026369
518.815552	1267.763306	30200.335938	4282.373535	10.419435
519.165710	1342.337646	30688.458984	4456.379883	10.611427
519.515869	1251.944458	30638.742188	4503.836426	11.065827
519.865967	1292.621338	30738.175781	4634.906250	11.350728
520.216003	1290.361572	30044.408203	4603.269043	11.521535
520.565918	1331.038452	29793.566406	4530.954590	11.242558
520.915955	1328.778687	29237.650391	4601.008789	11.724695
521.265869	1297.140991	28528.064453	4521.915039	11.842323
521.615723	1315.219727	28073.837891	4639.426270	12.422938
521.965576	1410.132446	28150.671875	4671.063477	12.194710
522.315369	1272.282959	27954.068359	4650.725098	12.661980
522.665161	1292.621338	27626.392578	4698.181641	12.932292
523.014832	1301.660645	27635.431641	4614.567871	12.580451
523.364502	1290.361572	27262.560547	4652.984863	12.947010
523.714172	1297.140991	27633.171875	4935.463379	13.814999
524.063782	1353.636719	28076.097656	4901.565918	13.276956
524.413330	1267.763306	28747.267578	4973.880371	13.486842
524.762817	1270.023071	29655.718750	5111.729980	13.533955
525.112366	1355.896606	30189.037109	5371.610352	13.927424
525.461792	1256.464111	31533.634766	5633.750000	14.457382
525.811157	1340.077759	32887.269531	5923.008301	14.527223
526.160522	1353.636719	33904.195313	5963.685059	14.162732
526.509827	1369.455566	35594.542969	6083.456055	13.773524
526.859131	1172.850586	36756.097656	6313.958496	14.448113
527.208313	1242.905151	38102.953125	6761.404297	14.971492
527.557495	1242.905151	40130.019531	7009.985352	14.830312
527.906738	1224.826538	42807.914063	7486.809082	15.058965
528.255859	1254.204346	45930.996094	8040.466797	15.189682
528.604919	1260.983765	50048.402344	8594.124023	15.030802
528.953918	1265.503418	52172.640625	9418.961914	16.016336
529.302917	1263.243652	53277.695313	9642.684570	16.109833
529.651917	1392.053833	54253.941406	10031.375000	16.343195
530.000793	1263.243652	53765.820313	9805.391602	16.269960
530.349609	1285.841919	51858.523438	9416.702148	16.077574
530.698547	1281.322266	49146.730469	8777.170898	15.660263
531.047302	1326.518799	45723.093750	8508.250977	16.176321
531.396057	1292.621338	43454.226563	8065.324707	16.063675
531.744751	1303.920532	40857.683594	7563.643066	15.825859
532.093445	1238.385498	40071.261719	7556.863770	16.270952
532.442139	1387.534180	39386.535156	7441.612305	15.932204
532.790710	1321.999146	39671.273438	7389.636230	15.822040
533.139160	1256.464111	40667.859375	7656.295898	16.238533
533.487732	1315.219727	41348.066406	7968.152344	16.618685
533.836243	1333.298340	41824.890625	7859.680664	16.117870
534.184631	1245.165039	42572.890625	8065.324707	16.502625
534.533020	1337.817993	41429.417969	7902.617188	16.374500
534.881348	1337.817993	40749.210938	7699.232910	16.141056
535.229736	1346.857300	39095.019531	7509.407227	16.325430
535.577942	1358.156372	37551.554688	7547.824219	17.101648
535.926086	1371.715332	36518.812500	7308.282715	16.890633
536.274353	1245.165039	36227.296875	7183.992188	16.976744
536.622498	1337.817993	36225.035156	7109.417480	16.543592
536.970642	1265.503418	35788.890625	7109.417480	16.927406
537.318665	1258.723999	35440.875000	6962.528809	16.686499
537.666687	1308.440186	34672.535156	6967.048340	16.960175
538.014709	1279.062378	34281.585938	6899.253906	17.029581
538.362610	1281.322266	33427.371094	6754.624512	17.026361
538.710510	1213.527466	32575.416016	6535.421387	16.969303
539.058411	1267.763306	31445.501953	6521.862305	17.410513
539.406250	1308.440186	31199.179688	6521.862305	17.441595
539.753967	1344.597412	31289.572266	6429.209473	16.979853
540.101746	1360.416260	31877.128906	6454.067871	16.691351
540.449463	1279.062378	33063.539063	6732.026367	17.156059
540.797119	1344.597412	35065.746094	7224.668945	17.437340
541.144714	1317.479492	37339.132813	7473.250000	17.089085
541.492249	1303.920532	40209.113281	7861.940430	16.856413
541.839844	1310.700073	40952.597656	8359.102539	17.780184
542.187378	1324.259033	42489.277344	8411.078125	17.215635
542.534790	1272.282959	42279.113281	8555.707031	17.761488
542.882202	1340.077759	42579.671875	8720.674805	17.896872
543.229553	1251.944458	40954.855469	8112.781250	17.280437
543.576965	1319.739380	39196.710938	7981.710938	17.588448
543.924194	1231.606079	37580.933594	7696.972656	17.786757
544.271423	1215.787231	35748.214844	7254.046875	17.485767
544.618652	1245.165039	34552.765625	7064.221191	17.470655
544.965881	1258.723999	33176.527344	6939.930664	17.799492
545.312988	1263.243652	31843.230469	6567.059082	17.344074
545.660034	1360.416260	30880.544922	6621.294922	17.821327
546.007141	1353.636719	30265.871094	6458.587402	17.656715
546.354126	1256.464111	29429.734375	6255.202637	17.742840
546.701111	1197.708618	29558.544922	6146.730957	17.450199
547.048035	1301.660645	29355.160156	6282.320801	17.754148
547.394836	1331.038452	29002.626953	6237.124023	17.729685
547.741699	1242.905151	28589.080078	6139.951660	17.907610
548.088562	1263.243652	27922.429688	5945.606445	17.563787
548.435303	1315.219727	27698.707031	5864.252441	17.241968
548.781921	1281.322266	26006.095703	5739.961914	18.033087
549.128662	1285.841919	25563.169922	5608.892090	17.806944
549.475342	1369.455566	24851.324219	5541.097168	17.765373
549.821899	1283.582031	23518.025391	5339.972656	18.243725
550.168457	1337.817993	23563.222656	5308.334961	17.864769
550.515015	1385.274292	22822.000000	5156.926758	17.594349
550.861511	1209.007813	22322.578125	4903.825684	17.499731
551.207886	1238.385498	21915.808594	5082.352539	18.590164
551.554260	1344.597412	21780.218750	5025.856445	18.013933
551.900635	1349.117065	21434.464844	4980.660156	18.080559
552.247009	1254.204346	21561.015625	4876.708008	17.838861
552.593262	1321.999146	21536.156250	4928.684082	17.842373
552.939392	1301.660645	21988.123047	5019.077148	17.970285
553.285645	1279.062378	22257.042969	5066.533691	18.054508
553.631775	1319.739380	22035.578125	4935.463379	17.453913
553.977905	1249.684692	21863.832031	5014.557617	18.263540
554.323975	1258.723999	21590.392578	4906.085938	17.939314
554.669983	1324.259033	21520.337891	5089.131836	18.641603
555.015991	1256.464111	20901.146484	4881.227539	18.451628
555.361877	1297.140991	20688.722656	4759.196777	17.853395
555.707825	1279.062378	20758.777344	4881.227539	18.491879
556.053711	1247.424805	20451.439453	4772.755859	18.357260
556.399536	1233.865845	20166.701172	4716.260254	18.393412
556.745239	1285.841919	19658.240234	4677.843262	18.462486
557.091003	1233.865845	19678.578125	4515.135742	17.789759
557.436707	1306.180420	19893.261719	4607.788574	17.762918
557.782410	1274.542725	19387.060547	4497.057129	17.791643
558.127991	1218.047119	19608.523438	4580.670410	18.284590
558.473511	1297.140991	19411.919922	4585.190430	18.151197
558.819092	1224.826538	19127.181641	4431.521973	17.912142
559.164612	1256.464111	19118.142578	4519.655273	18.269232
559.510010	1247.424805	18837.923828	4386.325195	17.844294
559.855408	1292.621338	18883.119141	4327.569824	17.253340
560.200806	1294.881226	18718.152344	4314.010742	17.328142
560.546143	1267.763306	19102.322266	4295.932129	16.979219
560.891357	1346.857300	18903.457031	4483.498047	17.865877
561.236633	1238.385498	19086.503906	4424.742676	17.852621
561.581848	1308.440186	18973.511719	4372.766602	17.346809
561.927002	1288.101685	19215.314453	4397.624512	17.345266
562.272095	1290.361572	19154.298828	4356.947754	17.166351
562.617126	1254.204346	19030.007813	4316.270508	17.226036
562.962219	1319.739380	19136.220703	4402.144043	17.300863
563.307251	1276.802612	18695.554688	4314.010742	17.436428
563.652161	1249.684692	19072.945313	4230.397461	16.723724
563.997009	1290.361572	19023.228516	4243.956055	16.656046
564.341919	1272.282959	18930.576172	4372.766602	17.558229
564.686768	1274.542725	19133.960938	4219.098145	16.487410
565.031555	1290.361572	19188.195313	4519.655273	18.042931
565.376282	1376.234985	19755.412109	4390.845215	16.402313
565.721008	1283.582031	19913.601563	4352.428223	16.472588
566.065674	1240.645386	20207.378906	4307.231445	16.168234
566.410278	1254.204346	20498.896484	4442.821289	16.568813
566.754822	1288.101685	20887.585938	4560.332031	16.695492
567.099365	1267.763306	20817.531250	4431.521973	16.183102
567.443909	1224.826538	20602.847656	4212.318848	15.416910
567.788330	1321.999146	20713.580078	4483.498047	16.303463
568.132751	1328.778687	20458.218750	4359.207520	15.841702
568.477112	1321.999146	20336.189453	4438.301270	16.389351
568.821533	1326.518799	20044.671875	4300.452148	15.887964
569.165771	1319.739380	19911.341797	4259.774902	15.813784
569.510010	1281.322266	19796.089844	4158.083008	15.537655
569.854248	1290.361572	19547.509766	4180.681152	15.831166
570.198364	1342.337646	19802.869141	4121.925781	15.056924
570.542542	1251.944458	19854.845703	4259.774902	16.168612
570.886536	1267.763306	19791.570313	4110.626465	15.347079
571.230591	1224.826538	20211.898438	4029.272705	14.770293
571.574646	1251.944458	20164.441406	3945.658936	14.243040
571.918518	1281.322266	20568.951172	4092.547852	14.575278
572.262451	1265.503418	20824.310547	4081.248779	14.396304
572.606323	1301.660645	21009.617188	4232.657227	14.872149
572.950195	1272.282959	20980.240234	4176.161621	14.734550
573.293945	1297.140991	21109.048828	4130.964844	14.303638
573.637695	1276.802612	20767.816406	4022.493164	14.086955
573.981384	1274.542725	20684.203125	4119.665527	14.658282
574.325134	1383.014526	20510.195313	4088.028076	14.142249
574.668701	1283.582031	20263.875000	4036.052002	14.501725
575.012268	1265.503418	20480.818359	3877.864258	13.595202
575.355774	1247.424805	20365.566406	4004.414551	14.420805
575.699341	1256.464111	20164.441406	3868.824951	13.816184
576.042725	1394.313599	20593.808594	4006.674316	13.606404
576.386169	1279.062378	19762.193359	3814.589111	13.718060
576.729553	1283.582031	19545.250000	3773.912109	13.636926
577.072876	1441.770020	19567.847656	3954.698242	13.863606
577.416138	1260.983765	18921.537109	3769.392578	14.203455
577.759399	1340.077759	18648.097656	3760.353027	13.983549
578.102600	1256.464111	18139.636719	3556.968750	13.626021
578.445801	1256.464111	17841.339844	3443.977295	13.189808
578.788940	1265.503418	17448.128906	3509.512207	13.866778
579.131897	1251.944458	17619.875000	3398.780762	13.116114
579.474976	1367.195679	17034.580078	3421.378906	13.111206
579.817993	1355.896606	16731.763672	3333.245850	12.860083
580.160950	1301.660645	16471.882813	3294.828613	13.138686
580.503845	1346.857300	16311.435547	3141.160400	11.990335
580.846680	1245.165039	16232.341797	3114.042480	12.469843
581.189514	1285.841919	15848.170898	3256.411621	13.531968
581.532349	1220.306885	15823.312500	3001.051025	12.194367
581.875061	1288.101685	16022.177734	3086.924561	12.208590
582.217773	1240.645386	15843.651367	3091.444092	12.674094
582.560425	1405.612793	15687.723633	3224.773926	12.737340
582.903076	1306.180420	15721.621094	3093.704102	12.400063
583.245667	1344.597412	15531.794922	2973.933105	11.484550
583.588135	1297.140991	15506.937500	2985.232178	11.879770
583.930664	1331.038452	15608.628906	3086.924561	12.298196
584.273071	1310.700073	15412.024414	2949.074951	11.618588
584.615479	1346.857300	15317.111328	2967.153564	11.598187
584.957825	1260.983765	15097.908203	3041.728027	12.869509
585.300232	1249.684692	15299.033203	2881.280273	11.613318
585.642517	1247.424805	14682.099609	2953.594727	12.699749
585.984680	1299.400879	15018.814453	3001.051025	12.403228
586.326843	1319.739380	14885.484375	3019.129639	12.527069
586.669067	1331.038452	14982.657227	3075.625488	12.779342
587.011230	1344.597412	14890.003906	3032.688721	12.462463
587.353271	1281.322266	15086.609375	2978.452881	12.293338
587.695251	1321.999146	14747.634766	2924.217041	11.934019
588.037231	1242.905151	14876.445313	2940.035645	12.448201
588.379211	1281.322266	14910.342773	2976.192871	12.435748
588.721069	1297.140991	15172.482422	2930.996338	11.775244
589.062927	1279.062378	15179.261719	2858.681885	11.364006
589.404785	1326.518799	15443.662109	3010.090332	11.925724
589.746582	1317.479492	15319.371094	2910.657959	11.378309
590.088257	1349.117065	15299.033203	2885.799805	11.015713
590.429932	1344.597412	15468.519531	2967.153564	11.488000
590.771606	1274.542725	15375.867188	2881.280273	11.394232
591.113220	1331.038452	15504.677734	2937.775879	11.336096
591.454773	1439.510132	15425.583008	3046.247559	11.488124
591.796265	1254.204346	15118.247070	2899.358887	11.866341
592.137817	1340.077759	15387.166016	2940.035645	11.389961
592.479248	1274.542725	14831.249023	2940.035645	12.285380
592.820618	1251.944458	14591.707031	2888.059570	12.264949
593.161926	1276.802612	15066.270508	2829.304199	11.258604
593.503296	1317.479492	14962.318359	2811.225586	10.947334
593.844604	1292.621338	14901.303711	2881.280273	11.673862
594.185791	1317.479492	15208.639648	2919.697266	11.534081
594.526917	1306.180420	15407.504883	2820.264893	10.737180
594.868103	1342.337646	15210.899414	2881.280273	11.096627
595.209229	1310.700073	15192.821289	2763.769287	10.467198
595.550232	1355.896606	15495.637695	2946.815186	11.251398
595.891235	1274.542725	15836.872070	2775.068359	10.304159
596.232178	1355.896606	16042.516602	2919.697266	10.647791
596.573181	1328.778687	16293.357422	2915.177734	10.601027
596.914063	1294.881226	16557.757813	2953.594727	10.867633
597.254883	1229.346191	16749.841797	3032.688721	11.619103
597.595703	1326.518799	16749.841797	2960.374268	10.593408
597.936462	1285.841919	17174.689453	3086.924561	11.335515
598.277161	1229.346191	17072.998047	2944.555420	10.825845
598.617798	1215.787231	16361.152344	2910.657959	11.190689
598.958435	1306.180420	16033.476563	2831.563965	10.357526
599.299072	1245.165039	15721.621094	2928.736572	11.629722
599.639587	1342.337646	15371.347656	2892.579346	11.050258
599.980103	1387.534180	14831.249023	2851.902344	10.892586
600.320557	1389.793945	14849.327148	2829.304199	10.695098
600.661072	1321.999146	14320.527344	2770.548584	11.143950
601.001404	1321.999146	14277.590820	2766.029053	11.145997
601.341675	1405.612793	14094.544922	2646.258057	9.777382
601.681946	1321.999146	14196.237305	2643.998291	10.268562
602.022278	1335.558105	14019.970703	2680.155518	10.600392
602.362427	1224.826538	14178.158203	2637.218750	10.903698
602.702576	1288.101685	14546.510742	2725.352051	10.840293
603.042725	1303.920532	14614.305664	2695.974365	10.458405
603.382813	1364.935913	15158.923828	2779.587891	10.255569
603.722839	1337.817993	15240.277344	2714.052979	9.899220
604.062805	1265.503418	15529.535156	2874.500732	11.280103
604.402771	1484.706787	16241.380859	3089.184326	10.872894
604.742737	1337.817993	16467.363281	2793.146973	9.619120
605.082581	1265.503418	16634.591797	2766.029053	9.763270
605.422363	1283.582031	16826.675781	2881.280273	10.279152
605.762146	1283.582031	17102.375000	2926.476807	10.385715
606.101929	1297.140991	16697.867188	2978.452881	10.917094
606.441589	1297.140991	16413.128906	2879.020264	10.464941
606.781189	1263.243652	16008.619141	2912.917725	11.187739
607.120850	1245.165039	15782.635742	2763.769287	10.446138
607.460388	1251.944458	15513.716797	2732.131592	10.378704
607.799927	1335.558105	14951.019531	2718.572510	10.157676
608.139404	1346.857300	14510.353516	2698.234131	10.266093
608.478821	1303.920532	14490.014648	2689.194824	10.505569
608.818298	1272.282959	14923.901367	2585.242676	9.617613
609.157593	1288.101685	14697.918945	2553.605225	9.437142
609.496887	1410.132446	14718.256836	2714.052979	9.797929
609.836182	1333.298340	14987.176758	2648.518066	9.632572
610.175415	1294.881226	15416.543945	2664.336670	9.697551
610.514526	1281.322266	15441.402344	2847.382813	11.059687
610.853699	1310.700073	15299.033203	2709.533203	9.999999
611.192688	1251.944458	15052.711914	2686.935059	10.397904
611.531799	1310.700073	14928.420898	2603.321289	9.492200
611.870850	1385.274292	14598.486328	2702.753906	9.970926
612.209778	1369.455566	14218.834961	2646.258057	9.936687
612.548645	1229.346191	13780.428711	2546.825684	10.496940
612.887573	1360.416260	13488.911133	2494.849609	9.353456
613.226440	1321.999146	13346.541992	2512.928223	9.904153
613.565186	1364.935913	13299.085938	2424.794922	8.880892
613.903931	1270.023071	13000.788086	2429.314697	9.882490
614.242676	1249.684692	12734.128906	2402.196777	10.035419
614.581360	1331.038452	12668.593750	2544.565918	10.703608
614.919983	1344.597412	12555.602539	2390.897705	9.332797
615.258484	1367.195679	12596.279297	2411.236084	9.297646
615.597046	1274.542725	12566.901367	2302.764404	9.105464
615.935547	1249.684692	12478.768555	2284.685791	9.217146
616.273987	1274.542725	12499.106445	2361.519775	9.683914
616.612366	1405.612793	12469.728516	2463.212158	9.558825
616.950806	1312.959839	12501.366211	2318.583252	8.988085
617.289124	1344.597412	12435.831055	2375.078857	9.290955
617.627380	1292.621338	12248.265625	2370.559082	9.839108
617.965515	1380.754639	12530.744141	2375.078857	8.917714
618.303772	1274.542725	12422.272461	2343.441162	9.588486
618.641968	1272.282959	12322.839844	2239.489258	8.752557
618.980042	1364.935913	12318.320313	2196.552490	7.592325
619.318054	1333.298340	12404.193359	2345.701172	9.144725
619.656128	1317.479492	12293.461914	2370.559082	9.594399
619.994080	1242.905151	12151.092773	2295.984863	9.654030
620.331970	1236.125732	12435.831055	2334.401855	9.806295
620.669861	1310.700073	12164.652344	2302.764404	9.140121
621.007751	1227.086426	12142.053711	2347.960938	10.269152
621.345581	1337.817993	12184.990234	2311.803711	8.979167
621.683289	1317.479492	11972.566406	2203.332031	8.313893
622.020996	1258.723999	12022.283203	2253.048096	9.237874
622.358704	1315.219727	11990.645508	2255.307861	8.806095
622.696350	1299.400879	11983.866211	2259.827637	8.989002
623.033875	1342.337646	11949.968750	2257.567871	8.628036
623.371460	1279.062378	11997.424805	2244.008789	9.002741
623.708984	1358.156372	11794.040039	2309.543701	9.116500
624.046448	1324.259033	11995.165039	2241.749023	8.598051
624.383789	1274.542725	11766.922852	2210.111328	8.916648
624.721191	1340.077759	11744.324219	2216.890869	8.427455
625.058533	1315.219727	11888.953125	2169.434570	8.078650
625.395813	1310.700073	11662.970703	2282.425781	9.386595
625.733032	1267.763306	12252.785156	2212.371338	8.599055
626.070190	1355.896606	12221.147461	2298.244629	8.673044
626.407410	1457.588867	12279.903320	2316.323242	7.934850
626.744507	1319.739380	12575.940430	2291.465088	8.632803
627.081543	1265.503418	12677.632813	2309.543701	9.148515
627.418518	1258.723999	12810.962891	2302.764404	9.037559
627.755554	1294.881226	12772.545898	2248.528564	8.308722
628.092529	1335.558105	12917.174805	2363.779785	8.878049
628.429382	1335.558105	12505.885742	2366.039551	9.225167
628.766174	1317.479492	12627.916992	2413.495850	9.690310
629.103027	1306.180420	12420.012695	2305.024170	8.987392
629.439819	1308.440186	12397.414063	2219.150635	8.212757
629.776489	1319.739380	12060.700195	2271.126709	8.857562
630.113159	1319.739380	11981.606445	2225.930176	8.499363
630.449829	1310.700073	11660.710938	2164.914795	8.253274
630.786377	1279.062378	11814.378906	2169.434570	8.451309
631.122925	1430.470825	11787.260742	2293.725098	8.335153
631.459412	1371.715332	11681.048828	2354.740479	9.535293
631.795898	1297.140991	11543.199219	2131.017334	8.138509
632.132324	1294.881226	11111.572266	2124.238037	8.448435
632.468689	1355.896606	11247.162109	2158.135254	8.110577
632.804993	1265.503418	11100.273438	2160.395264	9.099266
633.141296	1274.542725	11170.328125	2038.364502	7.718657
633.477539	1333.298340	11030.218750	2121.978027	8.133301
633.813721	1279.062378	11077.674805	2090.340576	8.279521
634.149841	1337.817993	11134.170898	2110.678955	7.889273
634.485962	1326.518799	10926.266602	2101.639648	8.074388
634.822083	1297.140991	10829.093750	2171.694336	9.174965
635.158020	1401.093140	11039.257813	2214.631104	8.440797
635.494019	1281.322266	10921.747070	2056.443115	8.040318
635.829956	1315.219727	10872.030273	2036.104736	7.543155
636.165894	1378.494873	10580.512695	2083.561035	7.662082
636.501709	1342.337646	10811.015625	2178.473877	8.830549
636.837463	1258.723999	10467.521484	2063.222656	8.736197
637.173279	1335.558105	10293.514648	2060.962891	8.097882
637.509033	1344.597412	10334.191406	2027.065430	7.591756
637.844666	1272.282959	10200.862305	2013.506348	8.301695
638.180237	1407.872559	10067.532227	2110.678955	8.115866
638.515869	1251.944458	10015.555664	1952.491089	7.993812
638.851440	1256.464111	10049.453125	2020.285889	8.686713
639.186890	1285.841919	9979.398438	2011.246582	8.344165
639.522339	1342.337646	9733.077148	1943.451782	7.164019
639.857727	1290.361572	9776.014648	1907.294556	7.270306
640.193176	1360.416260	9701.440430	2092.600342	8.778108
640.528442	1367.195679	9459.638672	1986.388428	7.651494
640.863708	1202.228271	9455.119141	1970.569702	9.309967
641.198914	1249.684692	9439.299805	1932.152588	8.333333
641.534180	1301.660645	9220.096680	1830.460327	6.678082
641.869263	1288.101685	9391.843750	1891.475708	7.445622
642.204346	1220.306885	9290.151367	1914.073975	8.597032
642.539368	1306.180420	9174.900391	1895.995361	7.495691
642.874390	1312.959839	9134.223633	1959.270508	8.263507
643.209412	1299.400879	9125.183594	1792.043335	6.295121
643.544312	1319.739380	9294.670898	1841.759521	6.545763
643.879150	1317.479492	9131.963867	1855.318481	6.882591
644.213989	1401.093140	9107.105469	1900.515015	6.480938
644.548828	1285.841919	8996.374023	1841.759521	7.209847
644.883545	1279.062378	8892.421875	1780.744141	6.589493
645.218262	1335.558105	8702.595703	1821.421021	6.595092
645.552856	1290.361572	8813.328125	1839.499634	7.299488
645.887573	1416.911865	8971.515625	2006.726929	7.807360
646.222107	1297.140991	8962.476563	1844.019287	7.134434
646.556580	1288.101685	8761.351563	1868.877441	7.771395
646.891113	1245.165039	8806.547852	1801.082642	7.352063
647.225586	1204.488159	8978.294922	1850.798828	8.313953
647.559937	1231.606079	8903.720703	1821.421021	7.687775
647.894226	1319.739380	9032.531250	1773.964722	5.889246
648.228577	1394.313599	8921.799805	1855.318481	6.124287
648.562927	1337.817993	9089.026367	1825.940674	6.297375
648.897095	1369.455566	8917.279297	1796.562988	5.658683
649.231262	1283.582031	8854.004883	1726.508301	5.850747
649.565430	1337.817993	8937.618164	1814.641602	6.274160
649.899475	1247.424805	8969.255859	1717.468994	6.087212
650.233521	1407.872559	8966.996094	1767.185181	4.753364
650.567505	1292.621338	8774.910156	1676.792114	5.134402
650.901428	1331.038452	8772.650391	1771.704834	5.921652
651.235413	1315.219727	8698.076172	1699.390381	5.203550
651.569275	1267.763306	8779.430664	1812.381714	7.250300
651.903015	1344.597412	8982.814453	1882.436401	7.041421
652.236816	1303.920532	8630.281250	1749.106567	6.076496
652.570618	1326.518799	8840.445313	1760.405762	5.774437
652.904297	1367.195679	8892.421875	1918.593628	7.327327
653.237915	1285.841919	8614.462891	1789.783447	6.876348
653.571533	1364.935913	8598.644531	1769.445068	5.592002
653.905090	1319.739380	8578.305664	1762.665527	6.102116
654.238586	1331.038452	8585.084961	1755.886108	5.856699
654.572021	1285.841919	8537.628906	1762.665527	6.575256
654.905457	1272.282959	8544.408203	1742.327148	6.463643
655.238892	1340.077759	8422.377930	1746.846802	5.743459
655.572144	1258.723999	8420.118164	1764.925415	7.068476
655.905457	1288.101685	8298.086914	1798.822754	7.285623
656.238708	1326.518799	8524.069336	1683.571533	4.960753
656.571960	1229.346191	8295.827148	1685.831421	6.459867
656.905090	1308.440186	8298.086914	1731.027954	6.045910
657.238159	1285.841919	8327.464844	1631.595581	4.910141
657.571289	1351.376953	8325.205078	1792.043335	6.318859
657.904358	1292.621338	8255.150391	1762.665527	6.751055
658.237305	1299.400879	8456.275391	1737.807495	6.125671
658.570190	1346.857300	8759.091797	1758.145874	5.548780
658.903076	1270.023071	8788.469727	1676.792114	5.410280
659.236023	1380.754639	9192.978516	1787.523682	5.206828
659.568787	1297.140991	9037.050781	1735.547607	5.664234
659.901428	1258.723999	9353.426758	1832.720215	7.091011
660.234192	1310.700073	9360.206055	1688.091187	4.688376
660.566895	1294.881226	9409.921875	1785.263794	6.042885
660.899536	1376.234985	9256.253906	1771.704834	5.018641
661.232056	1227.086426	9197.498047	1708.429688	6.039127
661.564636	1290.361572	9118.404297	1749.106567	5.860277
661.897156	1340.077759	8976.035156	1719.728760	4.971885
662.229553	1315.219727	8842.705078	1685.831421	4.923446
662.561951	1324.259033	8576.045898	1771.704834	6.170146
662.894287	1364.935913	8657.399414	1841.759521	6.538581
663.226685	1265.503418	8146.678711	1633.855347	5.353038
663.558899	1317.479492	8266.449219	1740.067261	6.081301
663.891052	1288.101685	8110.521484	1670.012573	5.597880
664.223328	1297.140991	7945.553711	1660.973267	5.472468
664.555420	1288.101685	7864.200195	1688.091187	6.082474
664.887512	1263.243652	7658.555664	1622.556274	5.618375
665.219543	1319.739380	7674.374512	1721.988647	6.330013
665.551575	1373.975220	7875.499023	1683.571533	4.761904
665.883545	1335.558105	7735.390137	1622.556274	4.484464
666.215454	1328.778687	7678.894043	1595.438354	4.199289
666.547302	1263.243652	7604.319824	1631.595581	5.808981
666.879150	1444.029785	7595.280762	1701.650146	4.188097
667.210938	1362.676025	7782.846191	1665.492920	4.716649
667.542664	1335.558105	7762.507813	1712.949341	5.872012
667.874268	1274.542725	7629.178223	1602.217773	5.156473
668.205994	1272.282959	7568.162598	1577.359619	4.845655
668.537537	1333.298340	7588.500977	1688.091187	5.671964
668.869080	1333.298340	7529.745605	1719.728760	6.236322
669.200562	1290.361572	7527.485840	1670.012573	6.086956
669.532043	1220.306885	7588.500977	1613.516968	6.174593
669.863525	1346.857300	7518.446289	1699.390381	5.712193
670.194824	1263.243652	7419.014160	1676.792114	6.718062
670.526184	1299.400879	7579.461914	1726.508301	6.801007
670.857483	1260.983765	7480.029297	1529.903320	4.324129
671.188660	1281.322266	7480.029297	1676.792114	6.379877
671.519897	1279.062378	7353.479004	1672.272461	6.473216
671.851013	1288.101685	7355.738770	1649.674194	5.959033
672.182129	1281.322266	7407.714844	1566.060547	4.647732
672.513184	1231.606079	7267.605469	1604.477661	6.177462
672.844238	1403.352905	7287.943848	1674.532227	4.608295
673.175171	1310.700073	7274.385254	1703.910034	6.593406
673.506104	1333.298340	7190.771484	1753.626221	7.175925
673.836975	1288.101685	7265.345703	1660.973267	6.238185
674.167786	1303.920532	7093.599121	1658.713501	6.128025
674.498596	1236.125732	7177.212402	1638.375000	6.770634
674.829407	1272.282959	7039.362793	1642.894653	6.426332
675.160034	1376.234985	7326.361328	1629.335693	4.253703
675.490723	1315.219727	7220.149414	1638.375000	5.472635
675.821289	1303.920532	7111.677734	1529.903320	3.891051
676.151917	1326.518799	7041.623047	1620.296387	5.140371
676.482422	1353.636719	7039.362793	1656.453613	5.325914
676.812927	1233.865845	6991.906738	1629.335693	6.868132
677.143311	1326.518799	6915.072266	1721.988647	7.076426
677.473694	1335.558105	7104.897949	1557.021240	3.838622
677.804016	1267.763306	6908.292969	1665.492920	7.051281
678.134338	1260.983765	6883.435059	1636.115234	6.672027
678.464539	1281.322266	6969.308594	1633.855347	6.197854
678.794800	1308.440186	6887.954590	1618.036621	5.548806
679.124878	1315.219727	7034.843262	1708.429688	6.874753
679.455078	1270.023071	6976.087891	1654.193848	6.732675
679.785095	1299.400879	7118.457031	1631.595581	5.708738
680.115173	1218.047119	7215.629395	1642.894653	7.083647
680.445129	1270.023071	7281.164551	1670.012573	6.654135
680.775024	1306.180420	7441.612305	1679.051880	6.077347
681.104919	1288.101685	7606.579590	1656.453613	5.829757
681.434814	1222.566772	7593.020996	1789.783447	8.903866
681.764526	1258.723999	7274.385254	1651.933960	6.536438
682.094360	1242.905151	7581.721680	1629.335693	6.096257
682.424011	1441.770020	7696.972656	1893.735596	7.225435
682.753723	1369.455566	7328.621094	1792.043335	7.091392
683.083313	1337.817993	7394.155762	1735.547607	6.567163
683.412903	1306.180420	7202.070801	1751.366455	7.550785
683.742432	1236.125732	7274.385254	1735.547607	8.270957
684.071899	1355.896606	7174.952637	1773.964722	7.184466
684.401306	1448.549561	7116.197266	1749.106567	5.303030
684.730713	1290.361572	6811.120605	1690.351074	7.245191
685.060059	1371.715332	7023.544434	1742.327148	6.557378
685.389404	1247.424805	6711.687988	1676.792114	7.857735
685.718628	1299.400879	6887.954590	1645.154541	6.186818
686.047852	1301.660645	6530.901855	1606.737427	5.834054
686.376953	1383.014526	6906.033203	1825.940674	8.019639
686.706116	1351.376953	6668.751465	1753.626221	7.564810
687.035156	1263.243652	6639.373535	1672.272461	7.608239
687.364197	1251.944458	6621.294922	1681.311768	7.996634
687.693176	1281.322266	6693.609375	1762.665527	8.893528
688.022156	1392.053833	6700.388672	1807.862061	7.833119
688.351013	1258.723999	6582.877930	1724.248413	8.743632
688.679871	1260.983765	6609.995605	1636.115234	7.013099
689.008606	1346.857300	6788.521973	1694.870728	6.395349
689.337402	1299.400879	6643.893066	1685.831421	7.230444
689.666138	1328.778687	6580.618164	1760.405762	8.218589
689.994751	1288.101685	6429.209473	1789.783447	9.758243
690.323364	1337.817993	6548.980469	1724.248413	7.415436
690.651917	1251.944458	6431.469238	1735.547607	9.336824
690.980469	1392.053833	6497.004395	1828.200562	8.543603
691.308960	1346.857300	6191.927734	1753.626221	8.395521
691.637451	1240.645386	6329.777344	1728.768066	9.591473
691.965759	1274.542725	6042.778809	1787.523682	10.758296
692.294128	1288.101685	5972.724609	1740.067261	9.647854
692.622437	1245.165039	6006.621582	1769.445068	11.010917
692.950684	1351.376953	6076.676270	1837.239868	10.282162
693.278870	1319.739380	5841.654297	1882.436401	12.443777
693.607117	1263.243652	5773.859375	1778.484375	11.422847
693.935120	1267.763306	5938.827148	1801.082642	11.417513
694.263245	1344.597412	5866.512695	1837.239868	10.894553
694.591248	1319.739380	5954.645996	1905.034668	12.627984
694.919250	1344.597412	5717.363770	1796.562988	10.335918
695.247192	1245.165039	5588.553711	1798.822754	12.747137
695.575073	1367.195679	5791.937988	1900.515015	12.053117
695.902893	1353.636719	5730.922852	1875.656860	11.925657
696.230774	1274.542725	5586.293945	1893.735596	14.360590
696.558411	1407.872559	5823.575684	2011.246582	13.664280
696.886169	1276.802612	5742.222168	2006.726929	16.346153
697.213806	1369.455566	5717.363770	1927.632935	12.837837
697.541443	1360.416260	5726.403320	2070.002197	16.252588
697.869019	1301.660645	6056.337891	2040.624390	15.541828
698.196533	1211.267578	6219.045410	1975.089355	15.252709
698.524048	1306.180420	6445.028320	2097.120117	15.391382
698.851501	1362.676025	6657.452148	2196.552490	15.749041
699.178772	1328.778687	6537.681152	2185.253418	16.442518
699.506226	1362.676025	6720.727539	2201.072021	15.647404
699.833435	1376.234985	7091.338867	2275.646484	15.737448
700.160767	1312.959839	7005.465820	2320.843018	17.705439
700.487915	1229.346191	6756.884766	2228.189941	18.070316
700.815063	1161.551392	6788.521973	2273.386475	19.759035
701.142151	1206.747925	6465.366699	2305.024170	20.885262
701.469238	1342.337646	6415.650391	2250.788330	17.906460
701.796265	1301.660645	6246.163574	2336.661865	20.932362
702.123230	1308.440186	6139.951660	2463.212158	23.900843
702.450134	1342.337646	5990.803223	2334.401855	21.341755
702.777039	1342.337646	5909.449219	2316.323242	21.326075
703.103882	1331.038452	5803.237305	2316.323242	22.031328
703.430664	1281.322266	5581.774414	2160.395264	20.441408
703.757385	1306.180420	5414.546875	2286.945557	23.872389
704.084106	1247.424805	5455.223633	2232.709717	23.415686
704.410767	1267.763306	5373.870117	2266.607178	24.325813
704.737366	1249.684692	5306.075195	2264.347168	25.013924
705.063904	1432.730713	5333.193359	2352.480469	23.580530
705.390442	1310.700073	5315.114746	2298.244629	24.661396
705.716919	1254.204346	5204.382813	2280.166016	25.972540
706.043396	1319.739380	5281.217285	2232.709717	23.046206
706.369690	1317.479492	5091.391602	2277.906250	25.449102
706.696106	1385.274292	5208.902832	2411.236084	26.832151
707.022278	1310.700073	5039.415527	2325.362549	27.212120
707.348633	1312.959839	5080.092285	2255.307861	25.014997
707.674805	1276.802612	5127.548828	2354.740479	27.992962
708.000916	1392.053833	4991.958984	2440.613770	29.127432
708.327026	1306.180420	5059.753906	2456.432617	30.644190
708.653076	1274.542725	5012.297852	2334.401855	28.355499
708.979065	1202.228271	5034.895996	2454.172852	32.665096
709.305054	1276.802612	5082.352539	2429.314697	30.285034
709.630920	1306.180420	5129.808594	2366.039551	27.718678
709.956787	1197.708618	5104.950684	2354.740479	29.612494
710.282593	1335.558105	5014.557617	2476.770996	31.019653
710.608459	1337.817993	5202.123047	2490.330078	29.824562
710.934082	1288.101685	5247.319824	2571.683838	32.420090
711.259827	1279.062378	5335.453125	2485.810303	29.749302
711.585449	1270.023071	5419.066406	2546.825684	30.773420
711.911072	1335.558105	5556.916016	2680.155518	31.852249
712.236572	1297.140991	5430.365723	2605.581299	31.656647
712.562073	1290.361572	5527.538574	2693.714600	33.120003
712.887512	1279.062378	5432.625488	2718.572510	34.657238
713.213013	1342.337646	5353.531738	2766.029053	35.492958
713.538330	1285.841919	5351.271973	2752.469971	36.075592
713.863647	1283.582031	5333.193359	2718.572510	35.435265
714.188904	1249.684692	5272.177734	2634.958984	34.438202
714.514099	1288.101685	5339.972656	2727.611816	35.527046
714.839294	1303.920532	5161.446289	2743.430664	37.316929
715.164490	1401.093140	5116.249512	2768.288818	36.800488
715.489502	1380.754639	5299.295898	2689.194824	33.391003
715.814575	1256.464111	5098.170898	2738.911133	38.588238
716.139526	1369.455566	5238.280273	2802.186279	37.032711
716.464539	1360.416260	4978.400391	2716.312744	37.476574
716.789368	1344.597412	4876.708008	2705.013672	38.515675
717.114258	1283.582031	4939.983398	2700.493896	38.751541
717.439026	1308.440186	4996.479004	2693.714600	37.561275
717.763794	1272.282959	4937.723145	2689.194824	38.655983
718.088440	1258.723999	4894.786621	2639.478760	37.973900
718.413208	1267.763306	4878.967773	2702.753906	39.737171
718.737793	1290.361572	4824.731934	2673.375977	39.130432
719.062378	1360.416260	4784.055176	2738.911133	40.264027
719.386841	1301.660645	4716.260254	2648.518066	39.444080
719.711304	1292.621338	4652.984863	2634.958984	39.946205
720.035767	1276.802612	4533.214355	2632.699219	41.637753
720.360168	1351.376953	4632.646484	2585.242676	37.603302
720.684570	1263.243652	4463.159668	2634.958984	42.867229
721.008789	1383.014526	4614.567871	2673.375977	39.930069
721.333069	1317.479492	4488.017578	2639.478760	41.696369
721.657227	1242.905151	4417.962891	2571.683838	41.850536
721.981445	1251.944458	4284.633301	2634.958984	45.603573
722.305481	1236.125732	4472.198730	2614.620605	42.597767
722.629578	1254.204346	4325.310059	2634.958984	44.959530
722.953552	1240.645386	4402.144043	2657.557373	44.817734
723.277588	1326.518799	4295.932129	2700.493896	46.270927
723.601440	1256.464111	4173.901367	2589.762451	45.701012
723.925354	1213.527466	4239.436523	2680.155518	48.469006
724.249146	1292.621338	4402.144043	2689.194824	44.912792
724.572937	1337.817993	4268.814453	2682.415283	45.875088
724.896667	1290.361572	4361.467285	2587.502686	42.236942
725.220398	1184.149658	4334.349121	2655.297363	46.700146
725.543945	1281.322266	4203.279297	2761.509277	50.657383
725.867615	1215.787231	4293.672363	2734.391357	49.339207
726.191101	1240.645386	4262.034668	2594.281982	44.801796
726.514648	1371.715332	4433.781738	2840.603271	47.970478
726.838074	1353.636719	4298.191895	2643.998291	43.821953
727.161499	1222.566772	4361.467285	2653.037598	45.572353
727.484863	1301.660645	4503.836426	2802.186279	46.859566
727.808228	1394.313599	4433.781738	2779.587891	45.576206
728.131470	1303.920532	4341.128906	2736.651123	47.172611
728.454712	1371.715332	4469.938965	2851.902344	47.775345
728.777832	1335.558105	4429.262207	2788.627197	46.968586
729.101013	1369.455566	4427.002441	2793.146973	46.563190
729.424011	1367.195679	4465.419434	2946.815186	50.984684
729.747070	1373.975220	4490.277344	2917.437500	49.528645
730.070068	1405.612793	4343.388672	2960.374268	52.923080
730.393005	1369.455566	4384.065430	2899.358887	50.749630
730.715881	1258.723999	4449.600586	2820.264893	48.937679
731.038757	1265.503418	4569.371582	2915.177734	49.931602
731.361572	1294.881226	4465.419434	2849.642578	49.037777
731.684326	1308.440186	4393.104980	2876.760498	50.842487
732.007019	1333.298340	4415.703125	2894.839111	50.659821
732.329712	1324.259033	4393.104980	2822.524658	48.821793
732.652283	1349.117065	4573.891113	2921.957031	48.773651
732.974854	1276.802612	4560.332031	2867.721191	48.451481
733.297363	1351.376953	4524.174805	2897.099121	48.717953
733.619873	1303.920532	4506.096191	2982.972412	52.434719
733.942261	1292.621338	4454.120117	2980.712646	53.395287
734.264648	1299.400879	4598.749023	3003.310791	51.643833
734.586975	1281.322266	4436.041504	2824.784424	48.925499
734.909302	1272.282959	4314.010742	2903.878418	53.640415
735.231506	1285.841919	4404.403809	2775.068359	47.753628
735.553711	1290.361572	4282.373535	2944.555420	55.287006
735.875854	1401.093140	4316.270508	2840.603271	49.379848
736.197937	1233.865845	4214.578613	2822.524658	53.297947
736.519958	1256.464111	4203.279297	2779.587891	51.687115
736.841980	1301.660645	4128.705078	2779.587891	52.278175
737.163940	1215.787231	4072.209473	2695.974365	51.819618
737.485840	1342.337646	4074.469238	2799.926514	53.349876
737.807678	1308.440186	4045.091309	2768.288818	53.344345
738.129517	1272.282959	3950.178711	2772.808594	56.033760
738.451233	1317.479492	4002.154785	2754.729980	53.535355
738.773010	1299.400879	4015.713623	2675.635986	50.665562
739.094666	1272.282959	4121.925781	2723.092285	50.911972
739.416260	1378.494873	4142.264160	2883.540039	54.456253
739.737854	1260.983765	4045.091309	2854.162354	57.224033
740.059448	1303.920532	4094.807617	2822.524658	54.412952
740.380859	1242.905151	4094.807617	2808.965820	54.912842
740.702332	1349.117065	4038.312012	2813.485352	54.453781
741.023682	1312.959839	4054.130859	2759.249512	52.761749
741.345032	1333.298340	4042.831543	2806.705811	54.378647
741.666321	1283.582031	3972.776855	2786.367432	55.882355
741.987549	1290.361572	3846.226563	2860.941650	61.450039
742.308777	1297.140991	3907.241943	2921.957031	62.251076
742.629944	1238.385498	3977.296631	2781.847900	56.353138
742.950989	1335.558105	3834.927490	2752.469971	56.690773
743.272095	1272.282959	3660.920654	2718.572510	60.548721
743.593140	1360.416260	3846.226563	2842.863037	59.636360
743.914063	1308.440186	3651.881348	2684.675293	58.727104
744.234985	1265.503418	3676.739502	2646.258057	57.263351
744.555847	1276.802612	3651.881348	2639.478760	57.373940
744.876648	1281.322266	3665.440430	2614.620605	55.924171
745.197449	1254.204346	3660.920654	2587.502686	55.399067
745.518188	1321.999146	3694.818115	2662.076904	56.476192
745.838867	1285.841919	3649.621582	2677.895752	58.891010
746.159485	1387.534180	3570.527588	2623.659912	56.625263
746.480042	1315.219727	3493.693604	2519.707764	55.290451
746.800537	1220.306885	3464.315674	2535.526611	58.610275
747.121094	1315.219727	3566.008057	2544.565918	54.618473
747.441528	1333.298340	3599.905273	2614.620605	56.530415
747.761902	1258.723999	3538.890137	2655.297363	61.248756
748.082275	1249.684692	3382.961914	2481.290771	57.733051
748.402588	1355.896606	3529.850830	2662.076904	60.083160
748.722839	1321.999146	3486.914063	2689.194824	63.152393
749.043030	1299.400879	3604.425049	2619.140137	57.254898
749.363159	1312.959839	3559.228516	2589.762451	56.841049
749.683289	1315.219727	3631.542969	2653.037598	57.756096
750.003357	1333.298340	3500.472900	2549.085449	56.100101
750.323303	1233.865845	3563.748047	2499.369385	54.316200
750.643311	1367.195679	3638.322510	2585.242676	53.631832
750.963257	1466.628174	3859.785645	2619.140137	48.158634
751.283142	1378.494873	3570.527588	2648.518066	57.938148
751.602905	1276.802612	3568.267822	2460.952393	51.676529
751.922729	1448.549561	3712.896729	2580.723145	50.000000
752.242432	1310.700073	3543.409668	2515.188232	53.947376
752.562134	1308.440186	3437.197754	2483.550537	55.201698
752.881714	1202.228271	3527.590820	2515.188232	56.462593
753.201355	1319.739380	3380.702148	2569.424072	60.635963
753.520874	1292.621338	3317.427002	2451.912842	57.254459
753.840393	1274.542725	3443.977295	2485.810303	55.833332
754.159851	1294.881226	3340.025146	2528.747070	60.331493
754.479248	1292.621338	3369.403076	2485.810303	57.453751
754.798523	1288.101685	3425.898682	2540.046143	58.562366
755.117859	1306.180420	3394.260986	2544.565918	59.307362
755.437134	1274.542725	3335.505615	2442.873535	56.688591
755.756348	1405.612793	3407.820068	2643.998291	61.851013
756.075500	1335.558105	3283.529541	2472.251465	58.352673
756.394653	1288.101685	3398.780762	2460.952393	55.567455
756.713623	1312.959839	3321.946533	2424.794922	55.343079
757.032654	1281.322266	3229.293701	2456.432617	60.324825
757.351624	1315.219727	3267.710693	2418.015625	56.481483
757.670532	1342.337646	3163.758545	2418.015625	59.057079
757.989441	1242.905151	3236.073242	2390.897705	57.596375
758.308289	1294.881226	3258.671387	2456.432617	59.148449
758.627014	1333.298340	3351.324463	2479.031006	56.774918
758.945801	1288.101685	3344.544922	2463.212158	57.142857
759.264404	1294.881226	3337.765381	2451.912842	56.637161
759.583130	1389.793945	3373.922607	2576.203369	59.794983
759.901611	1328.778687	3498.213135	2524.227539	55.104168
760.220215	1376.234985	3382.961914	2438.354004	52.927929
760.538635	1432.730713	3394.260986	2503.888916	54.608292
760.857117	1209.007813	3306.127686	2479.031006	60.560352
761.175537	1462.108521	3511.772217	2673.375977	59.095917
761.493896	1326.518799	3265.450928	2492.589844	60.139858
761.812134	1353.636719	3349.064453	2510.668457	57.984146
762.130432	1434.990479	3543.409668	2542.306152	52.518764
762.448608	1270.023071	3405.560303	2436.094238	54.603180
762.766785	1392.053833	3575.047363	2594.281982	55.072453
763.084900	1416.911865	3493.693604	2531.006836	53.645260
763.402954	1301.660645	3480.134521	2553.605225	57.468884
763.720947	1276.802612	3703.857422	2616.880371	55.214157
764.038940	1249.684692	3880.124023	2718.572510	55.841919
764.356750	1333.298340	4054.130859	2992.011719	60.963451
764.674683	1211.267578	4167.122070	2971.673340	59.556576
764.992493	1285.841919	4289.152832	2994.271484	56.884869
765.310303	1398.833252	4345.648438	3077.885254	56.978531
765.627930	1251.944458	4210.059082	2946.815186	57.295639
765.945679	1444.029785	4343.388672	3055.286865	55.572876
766.263306	1396.573486	4133.224609	2840.603271	52.766308
766.580872	1373.975220	3941.139404	2781.847900	54.841553
766.898376	1267.763306	3749.053955	2680.155518	56.921677
767.215881	1254.204346	3599.905273	2564.904297	55.876686
767.533325	1303.920532	3581.826660	2571.683838	55.654762
767.850708	1222.566772	3473.354980	2562.644531	59.538158
768.168030	1355.896606	3443.977295	2440.613770	51.948051
768.485352	1310.700073	3351.324463	2386.377930	52.713173
768.802551	1263.243652	3351.324463	2361.519775	52.597397
769.119751	1251.944458	3190.876709	2325.362549	55.361298
769.436890	1317.479492	3152.459473	2384.118164	58.128082
769.753967	1272.282959	3170.538086	2375.078857	58.095242
770.071045	1294.881226	3166.018555	2225.930176	49.758450
770.388062	1321.999146	3233.813232	2298.244629	51.063828
770.704956	1209.007813	3073.365479	2372.819092	62.424248
771.021912	1340.077759	3154.719238	2433.834229	60.273972
771.338684	1177.370239	3021.389404	2280.166016	59.803921
771.655579	1249.684692	3021.389404	2223.670410	54.974495
771.972351	1358.156372	3086.924561	2289.205322	53.856205
772.289063	1294.881226	2944.555420	2286.945557	60.136986
772.605713	1346.857300	2958.114258	2345.701172	61.991592
772.922302	1328.778687	2928.736572	2271.126709	58.898300
773.238831	1301.660645	2912.917725	2266.607178	59.887806
773.555420	1358.156372	3105.003174	2442.873535	62.095722
773.871826	1247.424805	2881.280273	2146.836182	55.048405
774.188293	1385.274292	2917.437500	2295.984863	59.439526
774.504639	1371.715332	2908.398193	2282.425781	59.264698
774.820984	1324.259033	2869.980957	2259.827637	60.526321
775.137207	1328.778687	2831.563965	2223.670410	59.548874
775.453552	1249.684692	2831.563965	2142.316650	56.428577
775.769592	1346.857300	2790.887207	2275.646484	64.319252
776.085815	1324.259033	2856.422119	2106.159424	51.032452
776.401855	1260.983765	2827.044434	2097.120117	53.391056
776.717896	1344.597412	2777.328125	2158.135254	56.782326
777.033875	1342.337646	2906.138428	2273.386475	59.537560
777.349854	1294.881226	2799.926514	2108.419189	54.054050
777.665710	1215.787231	2766.029053	2101.639648	57.142853
777.981567	1369.455566	2750.210205	2153.615723	56.792145
778.297363	1229.346191	2711.793213	2126.497803	60.518291
778.613098	1267.763306	2648.518066	2151.355957	63.993454
778.928772	1337.817993	2827.044434	2137.796875	53.717747
779.244385	1274.542725	2894.839111	2219.150635	58.298466
779.559998	1360.416260	2962.634033	2142.316650	48.801132
779.875488	1247.424805	2888.059570	2137.796875	54.269974
780.191040	1279.062378	2919.697266	2192.032715	55.647381
780.506470	1288.101685	2698.234131	2079.041504	56.089752
780.821899	1317.479492	2856.422119	2137.796875	53.303963
781.137207	1281.322266	2845.123047	2126.497803	54.046242
781.452576	1294.881226	2686.935059	2018.026001	51.948048
781.767822	1319.739380	2827.044434	2063.222656	49.325336
782.083069	1229.346191	2709.533203	2027.065430	53.893139
782.398193	1227.086426	2653.037598	2079.041504	59.746441
782.713379	1324.259033	2736.651123	1968.309814	45.599998
783.028381	1340.077759	2754.729980	2083.561035	52.555904
783.343384	1242.905151	2596.541992	2040.624390	58.931557
783.658386	1227.086426	2607.841064	2067.742188	60.883789
783.973328	1285.841919	2695.974365	2088.080811	56.891033
784.288086	1353.636719	2709.533203	2164.914795	59.833336
784.602966	1222.566772	2655.297363	1988.648315	53.470036
784.917725	1349.117065	2646.258057	2128.757568	60.104530
785.232483	1349.117065	2546.825684	2133.277344	65.471710
785.547119	1373.975220	2603.321289	2083.561035	57.720592
785.861755	1326.518799	2562.644531	2070.002197	60.146259
786.176270	1258.723999	2576.203369	2051.923584	60.205845
786.490845	1317.479492	2551.345459	2027.065430	57.509159
786.805298	1267.763306	2413.495850	1995.427734	63.510845
787.119751	1335.558105	2634.958984	2008.986694	51.826084
787.434143	1249.684692	2499.369385	1923.113281	53.887878
787.748474	1299.400879	2549.085449	2038.364502	59.132011
788.062744	1315.219727	2585.242676	2006.726929	54.448402
788.377014	1340.077759	2668.856445	2038.364502	52.551018
788.691162	1312.959839	2573.943604	2106.159424	62.903236
789.005310	1242.905151	2732.131592	2131.017334	59.635807
789.319397	1260.983765	2691.454590	2101.639648	58.767776
789.633423	1276.802612	2673.375977	2076.781494	57.281551
789.947449	1260.983765	2738.911133	2140.056641	59.480114
790.261414	1292.621338	2788.627197	2081.301270	52.719040
790.575256	1290.361572	2743.430664	2018.026001	50.077759
790.889160	1410.132446	2750.210205	2072.261963	49.409782
791.202881	1319.739380	2630.439453	2076.781494	57.758606
791.516663	1306.180420	2610.100830	2006.726929	53.726170
791.830322	1308.440186	2677.895752	2072.261963	55.775578
792.144043	1272.282959	2560.384766	1986.388428	55.438591
792.457581	1344.597412	2499.369385	2063.222656	62.230923
792.771118	1260.983765	2506.148926	2042.884155	62.794914
793.084656	1410.132446	2616.880371	2070.002197	54.681656
793.398071	1389.793945	2456.432617	1957.010742	53.177971
793.711487	1340.077759	2408.976318	1963.790161	58.350945
794.024841	1315.219727	2465.471924	1891.475708	50.098228
794.338135	1260.983765	2465.471924	1952.491089	57.410885
794.651428	1274.542725	2377.338623	1875.656860	54.508194
794.964600	1376.234985	2458.692383	1929.892822	51.148235
795.277771	1294.881226	2418.015625	1968.309814	59.959751
795.590881	1364.935913	2472.251465	1914.073975	49.591831
795.903931	1401.093140	2616.880371	2065.482422	54.646839
796.216980	1285.841919	2431.574463	1966.050049	59.368839
796.529907	1407.872559	2535.526611	2067.742188	58.517029
796.842834	1324.259033	2379.598389	1920.853516	56.531055
797.155701	1371.715332	2494.849609	1936.672241	50.301815
797.468506	1326.518799	2587.502686	2006.726929	53.942650
797.781250	1288.101685	2533.266846	2051.923584	61.343018
798.093994	1285.841919	2454.172852	1907.294556	53.191490
798.406677	1331.038452	2483.550537	1929.892822	51.960789
798.719238	1267.763306	2377.338623	1952.491089	61.710796
799.031921	1328.778687	2485.810303	1997.687622	57.812504
799.344360	1301.660645	2488.070313	1963.790161	55.809517
799.656860	1281.322266	2424.794922	1975.089355	60.671944
799.969299	1294.881226	2375.078857	1918.593628	57.740582
800.281677	1238.385498	2370.559082	1957.010742	63.473061
800.593933	1315.219727	2338.921631	1889.215942	56.070641
800.906250	1254.204346	2429.314697	1846.279175	50.384617
801.218445	1285.841919	2275.646484	1893.735596	61.415527
801.530640	1283.582031	2363.779785	1882.436401	55.439327
801.842712	1199.968506	2366.039551	1934.412476	62.984497
802.154846	1263.243652	2366.039551	1952.491089	62.500000
802.466797	1256.464111	2298.244629	1807.862061	52.928417
802.778870	1328.778687	2359.260010	1857.578247	51.315784
803.090759	1369.455566	2368.299316	1891.475708	52.262444
803.402649	1220.306885	2248.528564	1868.877441	63.076920
803.714478	1274.542725	2232.709717	1816.901367	56.603771
804.026245	1317.479492	2210.111328	1866.617554	61.518986
804.337952	1258.723999	2329.882324	1889.215942	58.860760
804.649658	1335.558105	2327.622559	1914.073975	58.314342
804.961243	1224.826538	2282.425781	1753.626221	50.000008
805.272888	1333.298340	2406.716309	1916.333862	54.315796
805.584412	1274.542725	2320.843018	1889.215942	58.747303
805.895874	1328.778687	2250.788330	1832.720215	54.656860
806.207336	1358.156372	2327.622559	1846.279175	50.349648
806.518677	1283.582031	2244.008789	1866.617554	60.705879
806.830017	1272.282959	2307.283936	1893.735596	60.043674
807.141357	1256.464111	2357.000244	1864.357788	55.236141
807.452576	1342.337646	2422.535156	1862.097900	48.117149
807.763733	1306.180420	2395.417236	1927.632935	57.053940
808.074890	1281.322266	2323.102783	1846.279175	54.229935
808.385925	1421.431519	2476.770996	2029.325195	57.601719
808.697021	1355.896606	2393.157471	1807.862061	43.572979
809.007935	1398.833252	2431.574463	1977.349121	56.017506
809.318909	1371.715332	2368.299316	1950.231201	58.049885
809.629822	1303.920532	2293.725098	1758.145874	45.890408
809.940674	1254.204346	2239.489258	1746.846802	50.000000
810.251404	1319.739380	2210.111328	1837.239868	58.121834
810.562195	1358.156372	2388.637695	1990.908081	61.403511
810.872864	1315.219727	2140.056641	1816.901367	60.821918
811.183533	1209.007813	2137.796875	1798.822754	63.503647
811.494080	1342.337646	2140.056641	1828.200562	60.906525
811.804626	1294.881226	2212.371338	1850.798828	60.591125
812.115112	1270.023071	2162.655029	1742.327148	52.911400
812.425598	1233.865845	2117.458496	1801.082642	64.194374
812.735962	1233.865845	2121.978027	1764.925415	59.796452
813.046326	1353.636719	2178.473877	1760.405762	49.315071
813.356628	1398.833252	2232.709717	1810.121948	49.322498
813.666870	1317.479492	2097.120117	1841.759521	67.246368
813.976990	1245.165039	2040.624390	1742.327148	62.500004
814.287170	1303.920532	2103.899414	1767.185181	57.909611
814.597290	1337.817993	2230.449951	1746.846802	45.822784
814.907349	1251.944458	2049.663574	1810.121948	69.971680
815.217346	1414.652100	2259.827637	1875.656860	54.545444
815.527283	1328.778687	2083.561035	1773.964722	58.982040
815.837158	1229.346191	2112.938721	1744.586914	58.312027
816.147034	1380.754639	2271.126709	1803.342407	47.461929
816.456787	1380.754639	2049.663574	1776.224487	59.121628
816.766541	1310.700073	2153.615723	1801.082642	58.176945
817.076233	1301.660645	2173.954102	1812.381714	58.549225
817.385925	1335.558105	2137.796875	1844.019287	63.380280
817.695496	1500.525513	2368.299316	1898.255249	45.833344
818.005066	1340.077759	2205.591797	1792.043335	52.219322
818.314514	1292.621338	2146.836182	1792.043335	58.465618
818.623962	1294.881226	2124.238037	1699.390381	48.773838
818.933350	1321.999146	2171.694336	1844.019287	61.436165
819.242737	1380.754639	2268.866943	1821.421021	49.618317
819.552002	1270.023071	2173.954102	1780.744141	56.500004
819.861328	1385.274292	2214.631104	1830.460327	53.678467
820.170471	1197.708618	2234.969482	1735.547607	51.851852
820.479675	1342.337646	2361.519775	1884.696289	53.215084
820.788696	1319.739380	2429.314697	1945.711548	56.415474
821.097839	1331.038452	2388.637695	1995.427734	62.820515
821.406738	1464.368286	2569.424072	2074.521729	55.214718
821.715698	1358.156372	2592.022217	2045.144043	55.677662
822.024597	1272.282959	2786.367432	2144.576416	57.611942
822.333435	1394.313599	3382.961914	2454.172852	53.295460
822.642273	1328.778687	4153.562988	2989.751953	58.800007
822.950989	1288.101685	4964.841309	3412.339600	57.775040
823.259705	1290.361572	5984.023438	3812.329102	53.731339
823.568359	1360.416260	6528.642090	4221.357910	55.356361
823.876953	1358.156372	7113.937500	4352.428223	52.021992
824.185486	1308.440186	7213.369629	4494.797363	53.960968
824.494019	1281.322266	6924.111816	4345.648438	54.305164
824.802429	1317.479492	6494.744629	4067.689697	53.120907
825.110840	1281.322266	5676.687012	3862.045410	58.714653
825.419189	1337.817993	5294.775879	3518.551514	55.111362
825.727478	1272.282959	4777.275391	3344.544922	59.123150
826.035767	1215.787231	4359.207520	3059.806641	58.662830
826.343933	1276.802612	4375.026367	3003.310791	55.725746
826.652100	1292.621338	4108.366699	2784.107666	52.969501
826.960144	1290.361572	3850.746338	2671.116211	53.927624
827.268250	1333.298340	3857.525635	2625.919678	51.208595
827.576233	1423.691406	3936.619629	2784.107666	54.136692
827.884155	1317.479492	3789.730957	2750.210205	57.952465
828.192017	1290.361572	3961.477783	2734.391357	54.060913
828.499878	1301.660645	4056.390625	2865.461426	56.767841
828.807678	1276.802612	3977.296631	2840.603271	57.907944
829.115479	1260.983765	3932.100098	2741.170898	55.414555
829.423096	1236.125732	3733.235107	2720.832520	59.457020
829.730835	1308.440186	3604.425049	2616.880371	56.988190
830.038330	1211.267578	3190.876709	2456.432617	62.899540
830.345947	1247.424805	3014.610107	2273.386475	58.056259
830.653442	1256.464111	2967.153564	2189.772949	54.557468
830.960876	1276.802612	2777.328125	2180.733643	60.240963
831.268250	1245.165039	2643.998291	1963.790161	51.373180
831.575623	1283.582031	2533.266846	1957.010742	53.887886
831.882874	1251.944458	2418.015625	1864.357788	52.519379
832.190125	1312.959839	2334.401855	1911.814209	58.628326
832.497314	1364.935913	2413.495850	1968.309814	57.543102
832.804504	1326.518799	2361.519775	1927.632935	58.078606
833.111572	1310.700073	2133.277344	1773.964722	56.318680
833.418640	1301.660645	2216.890869	1753.626221	49.382721
833.725586	1335.558105	2228.189941	1902.774902	63.544315
834.032532	1283.582031	2357.000244	1947.971436	61.894741
834.339417	1364.935913	2526.487305	2018.026001	56.225674
834.646301	1315.219727	2648.518066	2151.355957	62.711864
834.953003	1299.400879	2910.657959	2178.473877	54.558208
835.259827	1317.479492	2888.059570	2164.914795	53.956837
835.566467	1371.715332	2910.657959	2293.725098	59.911900
835.873108	1263.243652	3028.168945	2160.395264	50.832272
836.179688	1346.857300	2788.627197	2182.993408	57.993729
836.486267	1222.566772	2745.690430	2151.355957	60.979237
836.792664	1340.077759	2766.029053	2049.663574	49.762276
837.099121	1229.346191	2564.904297	2002.207275	57.868023
837.405518	1387.534180	2614.620605	2013.506348	51.012882
837.711792	1290.361572	2399.937012	1882.436401	53.360485
838.018127	1283.582031	2280.166016	1771.704834	48.979595
838.324341	1303.920532	2219.150635	1787.523682	52.839516
838.630554	1272.282959	2164.914795	1819.161255	61.265831
838.936646	1267.763306	2079.041504	1794.303101	64.902496
839.242737	1342.337646	2033.844849	1783.004028	63.725494
839.548767	1331.038452	1995.427734	1807.862061	71.768707
839.854797	1371.715332	2002.207275	1606.737427	37.275986
840.160645	1263.243652	1975.089355	1636.115234	52.380955
840.466553	1242.905151	1893.735596	1613.516968	56.944450
840.772400	1326.518799	1941.191895	1611.257080	46.323532
841.078186	1312.959839	2072.261963	1683.571533	48.809517
841.383850	1238.385498	1947.971436	1627.075928	54.777077
841.689575	1240.645386	2045.144043	1685.831421	55.337078
841.995178	1299.400879	1972.829468	1728.768066	63.758385
842.300781	1272.282959	2033.844849	1683.571533	54.005928
842.606262	1346.857300	2006.726929	1724.248413	57.191769
842.911743	1335.558105	1977.349121	1724.248413	60.563377
843.217163	1285.841919	1868.877441	1568.320313	48.449604
843.522583	1272.282959	1864.357788	1575.099854	51.145039
843.827881	1209.007813	1828.200562	1679.051880	75.912399
844.133179	1306.180420	1807.862061	1554.761353	49.549538
844.438354	1279.062378	1816.901367	1536.682739	47.899162
844.743530	1240.645386	1814.641602	1552.501587	54.330708
845.048645	1351.376953	1834.979980	1606.737427	52.803738
845.353760	1213.527466	1708.429688	1590.918701	76.255714
845.658752	1462.108521	1873.397095	1660.973267	48.351635
845.963745	1385.274292	1859.838135	1672.272461	60.476196
846.268555	1290.361572	1735.547607	1532.163086	54.314713
846.573486	1251.944458	1710.689453	1527.643433	60.098526
846.878296	1369.455566	1814.641602	1629.335693	58.375626
847.183044	1308.440186	1647.414307	1464.368286	46.000000
847.487732	1265.503418	1658.713501	1527.643433	66.666656
847.792419	1351.376953	1683.571533	1588.658813	71.428574
848.097046	1353.636719	1665.492920	1563.800659	67.391296
848.401611	1256.464111	1638.375000	1498.265747	63.313625
848.706055	1297.140991	1674.532227	1534.422974	62.874271
849.010559	1292.621338	1699.390381	1523.123779	56.666664
849.314941	1371.715332	1735.547607	1527.643433	42.857140
849.619324	1321.999146	1651.933960	1473.407593	45.890411
849.923584	1197.708618	1570.580200	1398.833252	53.939384
850.227844	1290.361572	1602.217773	1464.368286	55.797100
850.532043	1281.322266	1640.634888	1444.029785	45.282997
850.836243	1265.503418	1615.776733	1466.628174	57.419376
851.140320	1308.440186	1620.296387	1468.887939	51.449276
851.444397	1260.983765	1629.335693	1416.911865	42.331284
851.748352	1344.597412	1602.217773	1455.328979	42.982460
852.052307	1401.093140	1683.571533	1525.383667	44.000011
852.356140	1328.778687	1674.532227	1446.289673	33.986923
852.660095	1328.778687	1627.075928	1516.344360	62.878784
852.963806	1401.093140	1712.949341	1581.879272	57.970993
853.267578	1473.407593	1862.097900	1683.571533	54.069767
853.571228	1340.077759	1665.492920	1489.226440	45.833355
853.874939	1283.582031	1670.012573	1428.211060	37.426914
854.178467	1315.219727	1615.776733	1455.328979	46.616531
854.482056	1283.582031	1593.178467	1434.990479	48.905102
854.785461	1312.959839	1649.674194	1552.501587	71.140938
855.088989	1355.896606	1561.540894	1464.368286	52.747238
855.392273	1265.503418	1613.516968	1416.911865	43.506481
855.695679	1288.101685	1688.091187	1507.305054	54.802280
855.998901	1423.691406	1740.067261	1622.556274	62.857159
856.302185	1346.857300	1640.634888	1457.588867	37.692314
856.605286	1369.455566	1640.634888	1541.202393	63.333305
856.908508	1247.424805	1627.075928	1419.171753	45.238098
857.211548	1256.464111	1636.115234	1547.981934	76.785713
857.514587	1346.857300	1554.761353	1464.368286	56.521740
857.817566	1294.881226	1566.060547	1493.746094	73.333344
858.120483	1233.865845	1563.800659	1462.108521	69.178116
858.423340	1326.518799	1622.556274	1477.927246	51.145027
858.726196	1321.999146	1622.556274	1459.848633	45.864655
859.028931	1337.817993	1645.154541	1511.824707	56.617645
859.331665	1267.763306	1575.099854	1425.951172	51.470570
859.634277	1376.234985	1647.414307	1536.682739	59.166664
859.936890	1308.440186	1654.193848	1509.564819	58.169922
860.239441	1297.140991	1468.887939	1437.250366	81.578964
860.541992	1312.959839	1520.864014	1423.691406	53.260868
860.844421	1249.684692	1624.816040	1437.250366	50.000000
861.146912	1294.881226	1559.281006	1405.612793	41.880356
861.449219	1240.645386	1527.643433	1364.935913	43.307098
861.751526	1346.857300	1615.776733	1457.588867	41.176483
862.053772	1448.549561	1670.012573	1563.800659	52.040791
862.355957	1328.778687	1762.665527	1496.005859	38.541656
862.658081	1378.494873	1563.800659	1543.462280	89.024422
862.960266	1227.086426	1547.981934	1360.416260	41.549297
863.262207	1351.376953	1588.658813	1448.549561	40.952396
863.564331	1398.833252	1663.233154	1505.045166	40.170937
863.866211	1267.763306	1611.257080	1444.029785	51.315773
864.168091	1263.243652	1620.296387	1475.667480	59.493683
864.469910	1279.062378	1550.241699	1453.069214	64.166702
864.771729	1290.361572	1608.997314	1450.809326	50.354599
865.073425	1276.802612	1660.973267	1475.667480	51.764721
865.375122	1299.400879	1534.422974	1394.313599	40.384594
865.676819	1285.841919	1563.800659	1387.534180	36.585381
865.978333	1249.684692	1505.045166	1410.132446	62.831867
866.279907	1351.376953	1642.894653	1536.682739	63.565880
866.581360	1383.014526	1604.477661	1468.887939	38.775490
866.882874	1283.582031	1491.486206	1419.171753	65.217415
867.184143	1263.243652	1642.894653	1468.887939	54.166664
867.485535	1290.361572	1563.800659	1344.597412	19.834707
867.786743	1310.700073	1660.973267	1477.927246	47.741928
868.088013	1355.896606	1699.390381	1529.903320	50.657894
868.389160	1337.817993	1615.776733	1457.588867	43.089443
868.690308	1254.204346	1572.839966	1430.470825	55.319138
868.991333	1353.636719	1559.281006	1423.691406	34.065952
869.292358	1351.376953	1557.021240	1518.604126	81.318657
869.593323	1473.407593	1667.752808	1570.580200	50.000000
869.894287	1285.841919	1554.761353	1419.171753	49.579842
870.195068	1303.920532	1604.477661	1550.241699	81.954857
870.495911	1319.739380	1547.981934	1480.187134	70.297035
870.796692	1247.424805	1577.359619	1493.746094	74.657562
871.097412	1328.778687	1552.501587	1437.250366	48.484837
871.398010	1385.274292	1604.477661	1523.123779	62.886574
871.698669	1306.180420	1525.383667	1410.132446	47.422668
871.999207	1218.047119	1545.722046	1489.226440	82.758644
872.299683	1310.700073	1563.800659	1428.211060	46.428570
872.600159	1299.400879	1633.855347	1455.328979	46.621624
872.900574	1265.503418	1561.540894	1412.392212	49.618309
873.200867	1283.582031	1584.139160	1441.770020	52.631588
873.501160	1342.337646	1541.202393	1416.911865	37.499969
873.801392	1297.140991	1498.265747	1498.265747	100.000000
874.101624	1290.361572	1566.060547	1448.549561	57.377068
874.401733	1328.778687	1550.241699	1505.045166	79.591835
874.701843	1249.684692	1620.296387	1462.108521	57.317089
875.001831	1371.715332	1620.296387	1466.628174	38.181850
875.301819	1321.999146	1581.879272	1511.824707	73.043510
875.601746	1364.935913	1645.154541	1516.344360	54.032257
875.901672	1308.440186	1541.202393	1498.265747	81.553429
876.201477	1202.228271	1534.422974	1484.706787	85.034019
876.501282	1294.881226	1581.879272	1450.809326	54.330719
876.800964	1285.841919	1529.903320	1444.029785	64.814781
877.100647	1362.676025	1572.839966	1450.809326	41.935501
877.400208	1267.763306	1595.438354	1351.376953	25.517246
877.699829	1385.274292	1590.918701	1473.407593	42.857136
877.999329	1358.156372	1507.305054	1459.848633	68.181801
878.298767	1222.566772	1516.344360	1430.470825	70.769203
878.598206	1308.440186	1586.398926	1419.171753	39.837410
878.897583	1276.802612	1622.556274	1482.446899	59.477112
879.196838	1351.376953	1615.776733	1466.628174	43.589756
879.496155	1256.464111	1633.855347	1335.558105	20.958090
879.795288	1416.911865	1663.233154	1545.722046	52.293564
880.094482	1355.896606	1629.335693	1446.289673	33.057842
880.393555	1263.243652	1638.375000	1396.573486	35.542171
880.692627	1258.723999	1701.650146	1547.981934	65.306129
880.991577	1283.582031	1751.366455	1534.422974	53.623192
881.290588	1333.298340	1783.004028	1570.580200	52.763813
881.589355	1288.101685	1855.318481	1570.580200	49.800804
881.888306	1360.416260	2189.772949	1783.004028	50.953682
882.187012	1337.817993	2436.094238	1934.412476	54.320984
882.485840	1281.322266	2648.518066	2063.222656	57.190083
882.784424	1351.376953	2992.011719	2273.386475	56.198341
883.083069	1267.763306	3172.797852	2359.260010	57.295376
883.381592	1333.298340	3608.944580	2587.502686	55.114204
883.680176	1260.983765	3495.953369	2571.683838	58.645092
883.978638	1258.723999	3554.708740	2558.124756	56.594482
884.277039	1274.542725	3541.149902	2395.417236	49.451645
884.575378	1324.259033	3480.134521	2451.912842	52.306072
884.873779	1256.464111	3170.538086	2357.000244	57.497055
885.171997	1308.440186	3186.356934	2343.441162	55.114315
885.470276	1394.313599	3118.562012	2262.087402	50.327656
885.768311	1312.959839	2813.485352	2212.371338	59.939766
886.066528	1324.259033	2616.880371	2024.805542	54.195801
886.364502	1290.361572	2501.629150	1961.530396	55.410450
886.662537	1195.448853	2438.354004	1947.971436	60.545456
886.960510	1260.983765	2388.637695	1871.137207	54.108219
887.258362	1285.841919	2237.229248	1848.538940	59.144894
887.556213	1263.243652	2011.246582	1731.027954	62.537762
887.854004	1254.204346	1968.309814	1633.855347	53.164555
888.151733	1403.352905	1943.451782	1737.807495	61.924698
888.449402	1371.715332	1789.783447	1647.414307	65.945946
888.747009	1310.700073	1823.680908	1550.241699	46.696018
889.044617	1360.416260	1726.508301	1552.501587	52.469135
889.342163	1263.243652	1731.027954	1482.446899	46.859898
889.639648	1229.346191	1724.248413	1498.265747	54.337917
889.937012	1294.881226	1740.067261	1518.604126	50.253799
890.234436	1324.259033	1640.634888	1552.501587	72.142845
890.531738	1279.062378	1744.586914	1545.722046	57.281551
890.829041	1231.606079	1719.728760	1532.163086	61.574070
891.126221	1328.778687	1602.217773	1464.368286	49.586765
891.423401	1251.944458	1667.752808	1444.029785	46.195641
891.720459	1256.464111	1559.281006	1421.431519	54.477612
892.017578	1285.841919	1663.233154	1434.990479	39.520939
892.314514	1303.920532	1597.698120	1394.313599	30.769218
892.611511	1258.723999	1647.414307	1468.887939	54.069767
>>>>>End Processed Spectral Data<<<<<
