Jaz Data File
++++++++++++++++++++++++++++++++++++
Date: Mon Apr 25 12:46:18 2016
User: jaz
Dark Spectrum Present: Yes
Reference Spectrum Present: Yes
Processed Spectrum Present: Yes
Spectrometers: JAZA3098
Integration Time (usec): 890000 (JAZA3098)
Spectra Averaged: 1 (JAZA3098)
Boxcar Smoothing: 0 (JAZA3098)
Correct for Electrical Dark: No (JAZA3098)
Strobe/Lamp Enabled: Yes (JAZA3098)
Correct for Detector Non-linearity: No (JAZA3098)
Correct for Stray Light: No (JAZA3098)
Number of Pixels in Processed Spectrum: 2048
>>>>>Begin Processed Spectral Data<<<<<
W	D	R	S	P
190.313904	0.000000	0.000000	0.000000	0.000000
190.695511	0.000000	0.000000	0.000000	0.000000
191.077087	1138.953125	1123.134277	1145.732544	-42.856590
191.458633	1184.149658	1227.086426	1100.536011	-194.736710
191.840149	1175.110352	1193.188965	1116.354858	-325.000000
192.221634	1213.527466	1215.787231	1111.835205	-4500.124023
192.603088	1206.747925	1308.440186	1220.306885	13.333325
192.984528	1292.621338	1260.983765	1285.841919	21.428379
193.365921	1294.881226	1362.676025	1301.660645	9.999910
193.747284	1206.747925	1288.101685	1238.385498	38.888889
194.128616	1242.905151	1224.826538	1310.700073	-375.000671
194.509918	1303.920532	1306.180420	1249.684692	-2399.935303
194.891190	1256.464111	1281.322266	1256.464111	0.000000
195.272446	1204.488159	1281.322266	1242.905151	49.999920
195.653656	1419.171753	1367.195679	1459.848633	-78.260780
196.034836	1254.204346	1274.542725	1337.817993	411.112640
196.416000	1195.448853	1251.944458	1281.322266	152.000168
196.797104	1290.361572	1312.959839	1279.062378	-50.000271
197.178192	1315.219727	1303.920532	1224.826538	799.996765
197.559265	1328.778687	1227.086426	1256.464111	71.111191
197.940292	1251.944458	1233.865845	1242.905151	50.000000
198.321304	1288.101685	1236.125732	1265.503418	43.478313
198.702271	1337.817993	1220.306885	1231.606079	90.384575
199.083221	1175.110352	1308.440186	1211.267578	27.118631
199.464111	1220.306885	1308.440186	1218.047119	-2.564032
199.844986	1292.621338	1236.125732	1281.322266	19.999914
200.225830	1245.165039	1303.920532	1247.424805	3.846050
200.606659	1222.566772	1267.763306	1204.488159	-40.000000
200.987427	1389.793945	1385.274292	1425.951172	-800.000000
201.368195	1290.361572	1373.975220	1254.204346	-43.243210
201.748917	1303.920532	1349.117065	1321.999146	40.000000
202.129608	1288.101685	1274.542725	1346.857300	-433.334229
202.510284	1290.361572	1238.385498	1265.503418	47.826149
202.890915	1175.110352	1218.047119	1222.566772	110.526299
203.271515	1242.905151	1249.684692	1263.243652	299.998199
203.652100	1274.542725	1317.479492	1335.558105	142.105209
204.032623	1251.944458	1312.959839	1276.802612	40.740799
204.413147	1317.479492	1206.747925	1218.047119	89.795868
204.793625	1340.077759	1367.195679	1260.983765	-291.666901
205.174088	1258.723999	1274.542725	1242.905151	-100.000771
205.554504	1215.787231	1297.140991	1204.488159	-13.888814
205.934906	1181.889893	1267.763306	1218.047119	42.105263
206.315247	1193.188965	1213.527466	1236.125732	211.110779
206.695587	1215.787231	1249.684692	1211.267578	-13.333309
207.075882	1283.582031	1380.754639	1349.117065	67.441879
207.456146	1254.204346	1317.479492	1213.527466	-64.285713
207.836380	1353.636719	1290.361572	1220.306885	210.714386
208.216599	1242.905151	1236.125732	1249.684692	-100.001801
208.596771	1224.826538	1283.582031	1184.149658	-69.230766
208.976913	1303.920532	1373.975220	1394.313599	129.032150
209.357025	1383.014526	1498.265747	1446.289673	54.901932
209.737106	1256.464111	1299.400879	1215.787231	-94.736710
210.117157	1204.488159	1283.582031	1258.723999	68.571480
210.497177	1202.228271	1335.558105	1172.850586	-22.033842
210.877167	1258.723999	1242.905151	1292.621338	-214.284500
211.257126	1238.385498	1227.086426	1236.125732	19.999567
211.637070	1238.385498	1360.416260	1279.062378	33.333302
212.016968	1227.086426	1267.763306	1247.424805	49.999851
212.396835	1312.959839	1294.881226	1220.306885	512.500366
212.776672	1186.409546	1238.385498	1179.630005	-13.043611
213.156464	1218.047119	1265.503418	1197.708618	-42.857327
213.536255	1231.606079	1231.606079	1238.385498	0.000000
213.916000	1170.590698	1349.117065	1251.944458	45.569603
214.295700	1233.865845	1258.723999	1247.424805	54.545322
214.675400	1258.723999	1321.999146	1276.802612	28.571428
215.055038	1209.007813	1224.826538	1231.606079	142.857697
215.434662	1267.763306	1319.739380	1340.077759	139.130264
215.814240	1317.479492	1288.101685	1398.833252	-276.922516
216.193787	1265.503418	1285.841919	1270.023071	22.222155
216.573334	1297.140991	1319.739380	1319.739380	100.000000
216.952820	1249.684692	1272.282959	1263.243652	60.000000
217.332275	1260.983765	1188.669312	1229.346191	43.750000
217.711716	1378.494873	1387.534180	1398.833252	224.999329
218.091125	1285.841919	1233.865845	1290.361572	-8.695642
218.470505	1432.730713	1430.470825	1432.730713	-0.000000
218.849854	1312.959839	1301.660645	1299.400879	119.999352
219.229156	1297.140991	1288.101685	1247.424805	550.000000
219.608444	1233.865845	1297.140991	1308.440186	117.857239
219.987671	1333.298340	1369.455566	1310.700073	-62.500000
220.366898	1272.282959	1218.047119	1206.747925	120.833443
220.746094	1342.337646	1353.636719	1358.156372	140.000214
221.125244	1344.597412	1394.313599	1335.558105	-18.181818
221.504364	1331.038452	1303.920532	1215.787231	425.000214
221.883469	1229.346191	1283.582031	1190.929199	-70.833221
222.262512	1283.582031	1297.140991	1281.322266	-16.666216
222.641556	1177.370239	1209.007813	1249.684692	228.571426
223.020554	1227.086426	1270.023071	1251.944458	57.894676
223.399521	1238.385498	1258.723999	1283.582031	222.221558
223.778473	1220.306885	1270.023071	1238.385498	36.363636
224.157364	1168.330933	1265.503418	1220.306885	53.488342
224.536240	1310.700073	1211.267578	1242.905151	68.181854
224.915085	1084.717285	1231.606079	1172.850586	60.000015
225.293900	1215.787231	1344.597412	1211.267578	-3.508770
225.672684	1267.763306	1315.219727	1267.763306	0.000000
226.051437	1258.723999	1267.763306	1270.023071	124.999321
226.430161	1175.110352	1319.739380	1206.747925	21.874981
226.808838	1233.865845	1317.479492	1242.905151	10.810802
227.187500	1353.636719	1342.337646	1312.959839	360.001953
227.566132	1213.527466	1324.259033	1288.101685	67.346848
227.944717	1265.503418	1294.881226	1310.700073	153.846252
228.323288	1355.896606	1335.558105	1317.479492	188.888626
228.701813	1251.944458	1297.140991	1308.440186	125.000137
229.080307	1229.346191	1333.298340	1333.298340	100.000000
229.458786	1265.503418	1288.101685	1276.802612	50.000271
229.837234	1238.385498	1326.518799	1317.479492	89.743599
230.215637	1159.291626	1297.140991	1249.684692	65.573799
230.594009	1236.125732	1398.833252	1310.700073	45.833370
230.972351	1231.606079	1394.313599	1260.983765	18.055517
231.350662	1265.503418	1484.706787	1337.817993	32.989719
231.728958	1188.669312	1410.132446	1256.464111	30.612228
232.107193	1242.905151	1387.534180	1294.881226	35.937511
232.485413	1197.708618	1326.518799	1240.645386	33.333366
232.863602	1204.488159	1367.195679	1177.370239	-16.666666
233.241760	1233.865845	1401.093140	1229.346191	-2.702701
233.619873	1163.811279	1249.684692	1231.606079	78.947365
233.997986	1331.038452	1416.911865	1324.259033	-7.894666
234.376038	1346.857300	1441.770020	1346.857300	0.000000
234.754074	1242.905151	1453.069214	1328.778687	40.860237
235.132065	1321.999146	1349.117065	1263.243652	-216.666672
235.510025	1231.606079	1410.132446	1294.881226	35.443027
235.887970	1249.684692	1378.494873	1254.204346	3.508770
236.265869	1260.983765	1439.510132	1285.841919	13.924080
236.643738	1245.165039	1432.730713	1231.606079	-7.228913
237.021576	1229.346191	1373.975220	1285.841919	39.062508
237.399384	1233.865845	1315.219727	1184.149658	-61.111019
237.777161	1265.503418	1419.171753	1310.700073	29.411821
238.154892	1301.660645	1299.400879	1276.802612	1100.026978
238.532623	1220.306885	1385.274292	1233.865845	8.219175
238.910309	1279.062378	1389.793945	1297.140991	16.326521
239.287949	1197.708618	1401.093140	1238.385498	19.999989
239.665573	1215.787231	1401.093140	1297.140991	43.902409
240.043167	1251.944458	1441.770020	1240.645386	-5.952345
240.420715	1290.361572	1498.265747	1256.464111	-16.304367
240.798233	1242.905151	1550.241699	1263.243652	6.617664
241.175735	1312.959839	1527.643433	1263.243652	-23.157888
241.553207	1184.149658	1405.612793	1193.188965	4.081630
241.930634	1222.566772	1493.746094	1260.983765	14.166637
242.308014	1245.165039	1498.265747	1306.180420	24.107155
242.685394	1172.850586	1527.643433	1193.188965	5.732466
243.062729	1272.282959	1622.556274	1326.518799	15.483863
243.440033	1168.330933	1606.737427	1233.865845	14.948436
243.817307	1301.660645	1712.949341	1337.817993	8.791233
244.194534	1163.811279	1746.846802	1294.881226	22.480610
244.571747	1220.306885	1742.327148	1376.234985	29.870125
244.948929	1249.684692	1807.862061	1306.180420	10.121465
245.326065	1188.669312	1733.287720	1256.464111	12.448129
245.703186	1301.660645	1642.894653	1344.597412	12.582792
246.080261	1168.330933	1615.776733	1288.101685	26.767656
246.457306	1206.747925	1660.973267	1260.983765	11.940293
246.834320	1301.660645	1595.438354	1215.787231	-29.230745
247.211304	1258.723999	1719.728760	1249.684692	-1.960784
247.588257	1272.282959	1819.161255	1389.793945	21.487595
247.965195	1279.062378	1918.593628	1335.558105	8.833927
248.342087	1199.968506	2018.026001	1401.093140	24.585636
248.718933	1220.306885	1975.089355	1360.416260	18.562881
249.095764	1195.448853	1977.349121	1342.337646	18.786129
249.472549	1247.424805	2207.851563	1389.793945	14.823529
249.849319	1170.590698	2031.585083	1396.573486	26.246719
250.226044	1218.047119	1999.947388	1405.612793	23.988440
250.602737	1193.188965	1857.578247	1353.636719	24.149660
250.979401	1301.660645	1792.043335	1355.896606	11.059926
251.356033	1317.479492	1886.956055	1378.494873	10.714292
251.732635	1260.983765	1731.027954	1353.636719	19.711542
252.109207	1324.259033	1792.043335	1364.935913	8.695649
252.485748	1333.298340	1794.303101	1369.455566	7.843135
252.862244	1242.905151	1649.674194	1324.259033	20.000017
253.238724	1276.802612	1733.287720	1423.691406	32.178223
253.615158	1267.763306	1758.145874	1292.621338	5.069110
253.991577	1285.841919	1758.145874	1407.872559	25.837311
254.367950	1204.488159	1753.626221	1319.739380	20.987658
254.744308	1394.313599	1884.696289	1473.407593	16.129034
255.120621	1288.101685	1755.886108	1383.014526	20.289867
255.496902	1238.385498	1758.145874	1242.905151	0.869565
255.873154	1211.267578	1674.532227	1281.322266	15.121959
256.249390	1249.684692	1688.091187	1285.841919	8.247420
256.625549	1218.047119	1640.634888	1362.676025	34.224583
257.001709	1358.156372	1789.783447	1401.093140	9.947654
257.377838	1303.920532	1719.728760	1333.298340	7.065230
257.753937	1251.944458	1681.311768	1260.983765	2.105262
258.129974	1170.590698	1726.508301	1281.322266	19.918701
258.506012	1274.542725	1846.279175	1283.582031	1.581027
258.881989	1319.739380	1873.397095	1369.455566	8.979589
259.257935	1240.645386	1905.034668	1464.368286	33.673466
259.633911	1220.306885	1941.191895	1317.479492	13.479627
260.009766	1265.503418	2067.742188	1428.211060	20.281698
260.385651	1358.156372	2323.102783	1529.903320	17.798599
260.761475	1161.551392	2295.984863	1407.872559	21.713144
261.137299	1220.306885	2422.535156	1482.446899	21.804512
261.513062	1179.630005	2576.203369	1450.809326	19.417479
261.888763	1331.038452	2628.179443	1520.864014	14.634151
262.264496	1222.566772	2549.085449	1477.927246	19.250423
262.640137	1227.086426	2329.882324	1383.014526	14.139343
263.015808	1168.330933	2334.401855	1383.014526	18.410852
263.391388	1317.479492	2336.661865	1455.328979	13.525497
263.766998	1315.219727	2239.489258	1563.800659	26.894854
264.142517	1312.959839	2196.552490	1525.383667	24.040922
264.518036	1231.606079	1993.167969	1369.455566	18.100891
264.893524	1251.944458	2058.702881	1376.234985	15.406164
265.268951	1288.101685	2149.095947	1401.093140	13.123369
265.644379	1233.865845	1918.593628	1270.023071	5.280526
266.019745	1193.188965	1945.711548	1331.038452	18.318319
266.395111	1238.385498	1959.270508	1373.975220	18.808786
266.770386	1292.621338	1999.947388	1383.014526	12.779565
267.145691	1233.865845	2038.364502	1333.298340	12.359560
267.520966	1236.125732	2101.639648	1432.730713	22.715405
267.896149	1324.259033	2194.292725	1353.636719	3.376615
268.271362	1240.645386	2214.631104	1378.494873	14.153132
268.646515	1129.913818	2133.277344	1401.093140	27.027025
269.021606	1206.747925	2293.725098	1464.368286	23.700623
269.396729	1209.007813	2203.332031	1439.510132	23.181807
269.771790	1218.047119	2320.843018	1403.352905	16.803270
270.146790	1301.660645	2250.788330	1502.785400	21.190485
270.521790	1401.093140	2286.945557	1536.682739	15.306116
270.896759	1272.282959	2244.008789	1502.785400	23.720934
271.271667	1202.228271	2363.779785	1500.525513	25.680931
271.646545	1199.968506	2384.118164	1392.053833	16.221373
272.021423	1274.542725	2370.559082	1416.911865	12.989691
272.396271	1179.630005	2521.967529	1423.691406	18.181820
272.771027	1215.787231	2562.644531	1471.147827	18.959736
273.145813	1233.865845	2725.352051	1525.383667	19.545460
273.520538	1292.621338	2772.808594	1557.021240	17.862598
273.895233	1206.747925	2756.989746	1520.864014	20.262392
274.269897	1222.566772	2619.140137	1439.510132	15.533976
274.644501	1258.723999	2668.856445	1477.927246	15.544869
275.019135	1249.684692	2603.321289	1536.682739	21.202002
275.393677	1163.811279	2540.046143	1498.265747	24.302135
275.768250	1195.448853	2476.770996	1457.588867	20.458557
276.142700	1224.826538	2472.251465	1425.951172	16.123186
276.517212	1213.527466	2544.565918	1450.809326	17.826822
276.891632	1163.811279	2576.203369	1516.344360	24.960001
277.266022	1292.621338	2646.258057	1448.549561	11.519208
277.640381	1256.464111	2709.533203	1446.289673	13.063767
278.014740	1260.983765	2711.793213	1516.344360	17.601250
278.389038	1213.527466	2707.273438	1532.163086	21.331312
278.763336	1193.188965	2675.635986	1545.722046	23.780485
279.137543	1188.669312	2754.729980	1536.682739	22.222219
279.511780	1240.645386	2621.400146	1541.202393	21.767588
279.885925	1265.503418	2707.273438	1491.486206	15.673983
280.260101	1227.086426	2689.194824	1471.147827	16.692429
280.634186	1195.448853	2775.068359	1527.643433	21.030037
281.008301	1285.841919	2747.950439	1577.359619	19.938171
281.382294	1206.747925	2804.446045	1473.407593	16.690241
281.756348	1267.763306	2942.295654	1496.005859	13.630226
282.130280	1181.889893	3043.987793	1500.525513	17.111647
282.504272	1270.023071	3107.262939	1590.918701	17.466181
282.878143	1229.346191	3247.372314	1599.958008	18.365065
283.252014	1238.385498	3301.608154	1608.997314	17.962765
283.625854	1392.053833	3401.040527	1787.523682	19.685041
283.999664	1263.243652	3321.946533	1597.698120	16.245884
284.373444	1265.503418	3362.623535	1645.154541	18.103451
284.747192	1247.424805	3297.088379	1692.610840	21.719957
285.120941	1294.881226	3416.859375	1785.263794	23.109692
285.494629	1161.551392	3326.466309	1703.910034	25.052191
285.868256	1202.228271	3407.820068	1690.351074	22.131149
286.241882	1324.259033	3642.842041	1798.822754	20.467834
286.615448	1256.464111	3688.038574	1776.224487	21.375465
286.988983	1202.228271	3520.811523	1751.366455	23.684212
287.362518	1344.597412	3848.486328	1823.680908	19.133575
287.736023	1179.630005	3929.840332	1846.279175	24.239933
288.109467	1290.361572	3758.093262	1694.870728	16.391943
288.482880	1317.479492	3782.951416	1762.665527	18.056828
288.856262	1355.896606	3778.431885	1796.562988	18.190298
289.229584	1249.684692	3645.102051	1846.279175	24.905659
289.602936	1240.645386	3819.108643	1762.665527	20.245398
289.976227	1224.826538	3617.984131	1830.460327	25.306890
290.349457	1303.920532	3721.936035	1821.421021	21.401867
290.722687	1247.424805	3593.125977	1767.185181	22.157995
291.095886	1247.424805	3916.281250	1692.610840	16.680779
291.469025	1206.747925	3823.628418	1801.082642	22.711575
291.842133	1224.826538	4078.988770	1850.798828	21.931911
292.215240	1294.881226	4049.611084	1954.750854	23.954058
292.588287	1220.306885	4162.602539	1868.877441	22.043011
292.961304	1222.566772	4076.729004	1789.783447	19.873316
293.334320	1276.802612	4015.713623	1934.412476	24.009901
293.707245	1213.527466	3927.580322	1807.862061	21.898417
294.080170	1202.228271	3999.894775	1900.515015	24.959614
294.453064	1215.787231	4060.910156	1862.097900	22.716440
294.825897	1236.125732	4173.901367	1871.137207	21.615383
295.198730	1184.149658	4230.397461	1907.294556	23.738873
295.571533	1215.787231	4390.845215	1828.200562	19.288256
295.944275	1310.700073	4413.443359	1961.530396	20.975965
296.317017	1247.424805	4711.740723	2042.884155	22.961514
296.689697	1222.566772	4720.779785	1975.089355	21.511629
297.062317	1249.684692	4815.692871	2079.041504	23.257288
297.434967	1274.542725	4973.880371	2155.875488	23.824070
297.807526	1238.385498	4994.219238	2121.978027	23.525869
298.180115	1209.007813	5003.258301	2110.678955	23.764143
298.552612	1199.968506	5107.210449	2103.899414	23.134756
298.925110	1267.763306	5080.092285	2223.670410	25.074097
299.297546	1260.983765	5102.690918	2273.386475	26.352940
299.669983	1206.747925	4958.062012	2131.017334	24.638552
300.042358	1274.542725	4811.172852	2169.434570	25.303518
300.414734	1285.841919	4533.214355	2131.017334	26.026438
300.787048	1288.101685	4650.725098	2099.379883	24.126347
301.159332	1236.125732	4393.104980	1900.515015	21.045095
301.531616	1222.566772	4408.923828	1997.687622	24.326241
301.903809	1249.684692	4368.246582	1986.388428	23.623186
302.276031	1193.188965	4345.648438	2060.962891	27.526886
302.648163	1206.747925	4429.262207	2018.026001	25.175314
303.020294	1195.448853	4381.805664	2015.766235	25.744680
303.392395	1213.527466	4390.845215	1977.349121	24.039825
303.764435	1209.007813	4402.144043	1984.128662	24.274593
304.136444	1279.062378	4234.916992	1927.632935	21.941896
304.508453	1236.125732	4239.436523	2024.805542	26.260345
304.880371	1299.400879	4223.617676	2060.962891	26.043282
305.252319	1222.566772	4185.200684	1963.790161	25.019070
305.624207	1281.322266	4176.161621	1993.167969	24.590162
305.996033	1260.983765	4180.681152	2081.301270	28.095978
306.367859	1132.173584	4049.611084	1936.672241	27.575523
306.739655	1213.527466	4210.059082	1895.995361	22.775261
307.111389	1209.007813	4130.964844	1999.947388	27.068830
307.483124	1190.929199	4142.264160	1920.853516	24.732006
307.854828	1301.660645	4243.956055	1984.128662	23.195087
308.226471	1256.464111	4203.279297	1936.672241	23.082823
308.598083	1326.518799	4365.986816	1925.373169	19.702604
308.969666	1233.865845	4259.774902	2173.954102	31.067961
309.341187	1256.464111	4404.403809	2029.325195	24.551331
309.712738	1236.125732	4585.190430	2004.467041	22.941967
310.084167	1211.267578	4614.567871	2058.702881	24.900398
310.455658	1324.259033	4973.880371	2042.884155	19.690403
310.827057	1238.385498	4919.644531	2180.733643	25.598528
311.198456	1215.787231	4838.291016	2169.434570	26.325640
311.569794	1267.763306	5062.013672	2182.993408	24.121500
311.941132	1233.865845	5041.675293	2268.866943	27.181009
312.312408	1204.488159	4960.321777	2142.316650	24.969917
312.683655	1224.826538	4951.282227	2223.670410	26.804127
313.054840	1279.062378	4761.456543	2282.425781	28.812460
313.426056	1333.298340	4933.203613	2162.655029	23.038292
313.797180	1328.778687	5048.455078	2295.984863	26.002428
314.168304	1260.983765	4689.142090	2151.355957	25.972319
314.539368	1211.267578	4589.709961	2092.600342	26.086956
314.910431	1236.125732	4702.701172	2115.198730	25.358541
315.281433	1274.542725	4790.834473	2176.214111	25.642679
315.652435	1303.920532	5007.777832	2280.166016	26.357534
316.023346	1245.165039	4991.958984	2135.537109	23.763573
316.394287	1238.385498	4964.841309	2151.355957	24.499699
316.765137	1199.968506	4845.070313	2149.095947	26.038435
317.135986	1303.920532	4962.581543	2155.875488	23.285976
317.506775	1224.826538	4686.882324	2060.962891	24.151442
317.877594	1319.739380	4695.921875	2234.969482	27.108431
318.248291	1294.881226	4431.521973	2110.678955	26.008646
318.619019	1242.905151	4614.567871	2131.017334	26.340483
318.989655	1274.542725	4734.338867	2135.537109	24.885696
319.360321	1299.400879	4695.921875	2142.316650	24.817034
319.730896	1328.778687	4655.245117	2203.332031	26.290762
320.101501	1242.905151	4601.008789	2219.150635	29.071333
320.472015	1218.047119	4704.960938	2151.355957	26.766043
320.842529	1190.929199	4668.803711	2056.443115	24.886290
321.213013	1211.267578	4727.559570	2201.072021	28.149097
321.583466	1299.400879	4623.607422	2137.796875	25.220936
321.953827	1240.645386	4560.332031	2131.017334	26.820965
322.324188	1272.282959	4558.072266	2117.458496	25.722147
322.694519	1143.472778	4619.087402	2085.820801	27.113132
323.064819	1310.700073	4677.843262	2108.419189	23.691275
323.435059	1294.881226	4985.179688	2332.142090	28.107779
323.805328	1310.700073	4899.306152	2225.930176	25.503778
324.175507	1337.817993	5089.131836	2264.347168	24.698790
324.545685	1229.346191	5202.123047	2216.890869	24.857794
324.915802	1303.920532	5559.175781	2309.543701	23.632498
325.285919	1290.361572	5683.466309	2386.377930	24.948561
325.655975	1260.983765	5584.034180	2422.535156	26.868792
326.025970	1129.913818	5450.704102	2300.504395	27.092049
326.395966	1263.243652	5428.105957	2345.701172	25.990236
326.765930	1181.889893	5471.042480	2354.740479	27.344578
327.135864	1227.086426	5577.254395	2451.912842	28.155842
327.505737	1233.865845	5484.601563	2472.251465	29.133442
327.875580	1247.424805	5319.634277	2363.779785	27.413986
328.245422	1455.328979	5572.734863	2578.463379	27.277719
328.615204	1222.566772	5265.398438	2318.583252	27.110121
328.984955	1188.669312	5159.186523	2298.244629	27.945360
329.354675	1218.047119	5206.642578	2316.323242	27.535410
329.724365	1224.826538	5048.455078	2203.332031	25.591019
330.093994	1238.385498	5048.455078	2332.142090	28.706997
330.463623	1218.047119	5109.470215	2314.063477	28.164925
330.833191	1211.267578	5276.697266	2196.552490	24.235689
331.202759	1215.787231	5118.509766	2329.882324	28.546612
331.572266	1125.394165	5254.099121	2216.890869	26.436781
331.941711	1251.944458	5414.546875	2307.283936	25.352877
332.311188	1231.606079	5407.767578	2390.897705	27.759741
332.680573	1209.007813	5428.105957	2440.613770	29.191214
333.049988	1242.905151	5466.522949	2320.843018	25.521673
333.419312	1215.787231	5839.394531	2519.707764	28.201368
333.788635	1233.865845	5868.772461	2481.290771	26.913700
334.157867	1222.566772	5880.071289	2492.589844	27.268316
334.527130	1236.125732	5904.929688	2506.148926	27.202326
334.896332	1294.881226	6117.353516	2668.856445	28.491096
335.265503	1163.811279	6178.368652	2555.864990	27.760250
335.634613	1317.479492	6214.525879	2562.644531	25.426859
336.003723	1265.503418	6054.078125	2653.037598	28.975933
336.372772	1319.739380	6169.329590	2691.454590	28.285177
336.741821	1254.204346	5952.385742	2544.565918	27.465128
337.110809	1204.488159	5859.732910	2510.668457	28.058252
337.479797	1220.306885	5920.748535	2531.006836	27.884615
337.848724	1281.322266	6006.621582	2551.345459	26.877094
338.217590	1254.204346	5947.866211	2524.227539	27.058258
338.586487	1134.433472	5850.693848	2537.786377	29.755629
338.955292	1267.763306	5970.464355	2472.251465	25.612688
339.324036	1179.630005	5961.425293	2544.565918	28.544422
339.692841	1215.787231	5954.645996	2510.668457	27.324747
340.061523	1233.865845	5744.481934	2447.393311	26.903807
340.430237	1138.953125	5857.473145	2562.644531	30.172415
340.798859	1340.077759	6015.661133	2632.699219	27.646206
341.167511	1175.110352	5816.796387	2555.864990	29.746834
341.536072	1258.723999	5913.968750	2528.747070	27.281553
341.904663	1238.385498	5945.606445	2492.589844	26.644264
342.273102	1242.905151	6035.999512	2499.369385	26.214052
342.641632	1392.053833	6359.154785	2657.557373	25.477709
343.010040	1297.140991	6144.471191	2411.236084	22.983685
343.378510	1190.929199	6225.825195	2596.541992	27.917414
343.746826	1220.306885	6320.737793	2558.124756	26.229507
344.115204	1297.140991	6309.438477	2619.140137	26.375114
344.483490	1274.542725	6440.508789	2580.723145	25.284342
344.851776	1242.905151	6591.916992	2623.659912	25.813269
345.220001	1256.464111	6781.742676	2693.714600	26.012274
345.588196	1224.826538	6881.175293	2682.415283	25.769075
345.956329	1263.243652	6752.364746	2759.249512	27.254015
346.324524	1274.542725	7003.205566	2865.461426	27.771204
346.692596	1301.660645	6946.709961	2759.249512	25.820658
347.060669	1376.234985	7220.149414	2811.225586	24.555298
347.428680	1238.385498	6720.727539	2723.092285	27.081617
347.796692	1229.346191	6774.963379	2625.919678	25.183372
348.164612	1299.400879	6429.209473	2632.699219	25.991190
348.532562	1297.140991	6777.223145	2684.675293	25.319590
348.900421	1342.337646	6623.554688	2666.596680	25.074884
349.268311	1283.582031	6139.951660	2603.321289	27.175428
349.636108	1213.527466	6334.296875	2587.502686	26.831421
350.003906	1249.684692	6393.052246	2533.266846	24.956064
350.371643	1202.228271	6510.563477	2603.321289	26.394209
350.739380	1308.440186	6860.836426	2795.406738	26.780626
351.107025	1256.464111	6677.790527	2666.596680	26.010841
351.474701	1199.968506	6657.452148	2673.375977	26.997929
351.842285	1170.590698	6643.893066	2666.596680	27.332787
352.209900	1202.228271	6865.356445	2655.297363	25.658419
352.577393	1340.077759	6854.057129	2729.871826	25.204920
352.944946	1236.125732	6849.537598	2668.856445	25.523348
353.312378	1163.811279	6811.120605	2634.958984	26.050417
353.679840	1215.787231	6722.987305	2682.415283	26.631102
354.047211	1213.527466	7204.330566	2781.847900	26.178801
354.414612	1154.771851	7308.282715	2822.524658	27.102461
354.781891	1184.149658	7470.990234	2851.902344	26.527676
355.149231	1213.527466	7687.933594	3071.105713	28.691097
355.516449	1222.566772	7676.634277	2958.114258	26.890755
355.883698	1188.669312	7837.082031	2949.074951	26.478586
356.250854	1281.322266	8112.781250	3075.625488	26.265301
356.618011	1247.424805	8230.291992	3059.806641	25.954695
356.985168	1181.889893	8282.268555	3057.546875	26.416294
357.352234	1299.400879	8591.864258	3132.121094	25.131702
357.719269	1233.865845	8779.430664	3233.813232	26.504938
358.086304	1220.306885	9079.987305	3238.333008	25.675676
358.453278	1251.944458	9233.655273	3396.520996	26.868633
358.820190	1310.700073	9231.395508	3333.245850	25.534952
359.187103	1215.787231	9714.999023	3412.339600	25.844187
359.554016	1238.385498	9550.031250	3392.001221	25.910822
359.920837	1204.488159	9450.598633	3260.931152	24.938337
360.287628	1231.606079	9328.568359	3297.088379	25.509350
360.654388	1254.204346	9333.087891	3315.166992	25.510489
361.021149	1233.865845	9818.951172	3443.977295	25.743616
361.387848	1220.306885	10264.136719	3509.512207	25.312344
361.754486	1254.204346	10833.613281	3575.047363	24.227413
362.121124	1238.385498	11364.672852	3719.676270	24.503460
362.487732	1163.811279	11803.080078	3934.359863	26.040781
362.854279	1202.228271	11907.031250	3855.265869	24.783619
363.220795	1328.778687	12013.243164	3990.855469	24.915396
363.587311	1317.479492	11739.804688	3855.265869	24.349522
363.953735	1186.409546	10881.070313	3769.392578	26.643354
364.320160	1231.606079	10487.860352	3715.156494	26.831053
364.686554	1218.047119	9859.627930	3360.363770	24.790794
365.052887	1209.007813	9348.907227	3240.592773	24.958355
365.419189	1195.448853	8998.633789	3206.695313	25.774687
365.785492	1157.031738	8867.563477	3048.507568	24.531069
366.151703	1242.905151	8709.375977	3068.845947	24.455206
366.517944	1331.038452	8718.415039	3091.444092	23.829916
366.884094	1335.558105	8695.816406	3125.341553	24.316856
367.250214	1260.983765	8625.761719	3007.830566	23.718935
367.616333	1285.841919	8569.266602	3075.625488	24.573380
367.982361	1215.787231	8334.244141	2917.437500	23.904762
368.348419	1141.212891	8316.166016	3046.247559	26.551180
368.714386	1231.606079	8280.008789	2915.177734	23.885860
369.080383	1340.077759	8327.464844	3028.168945	24.159119
369.446289	1358.156372	8255.150391	3010.090332	23.951506
369.812195	1319.739380	8277.749023	2935.516113	23.221823
370.178009	1209.007813	8049.505859	2869.980957	24.281466
370.543854	1184.149658	8126.340332	2930.996338	25.162760
370.909607	1238.385498	8171.536621	2924.217041	24.315516
371.275360	1166.071045	8090.182617	2847.382813	24.281986
371.641052	1249.684692	8657.399414	2976.192871	23.306892
372.006744	1220.306885	8539.888672	2912.917725	23.124420
372.372375	1290.361572	8505.991211	2928.736572	22.705917
372.737976	1238.385498	8596.383789	2827.044434	21.590912
373.103546	1251.944458	8585.084961	2926.476807	22.835133
373.469055	1267.763306	8594.124023	2890.319580	22.146824
373.834595	1319.739380	8731.973633	2958.114258	22.103657
374.199982	1215.787231	8594.124023	2917.437500	23.062788
374.565460	1290.361572	8508.250977	2863.201660	21.790857
374.930817	1211.267578	8741.013672	2845.123047	21.698679
375.296204	1179.630005	8887.902344	2881.280273	22.075638
375.661499	1260.983765	8792.989258	2851.902344	21.122112
376.026825	1394.313599	9147.782227	2971.673340	20.343924
376.391998	1179.630005	9226.875977	2829.304199	20.499861
376.757263	1179.630005	9285.631836	2851.902344	20.630051
377.122406	1175.110352	9475.457031	3025.909180	22.297850
377.487549	1229.346191	10017.815430	3134.380859	21.676525
377.852631	1118.614624	10304.813477	3105.003174	21.623617
378.217743	1240.645386	10632.489258	3220.254395	21.077959
378.582764	1211.267578	10435.883789	3166.018555	21.190594
378.947754	1270.023071	10625.708984	3240.592773	21.062803
379.312714	1272.282959	10411.025391	3116.302246	20.178043
379.677673	1184.149658	9916.124023	3082.404785	21.739128
380.042542	1231.606079	9647.204102	2874.500732	19.522020
380.407379	1272.282959	9685.621094	2851.902344	18.775181
380.772186	1224.826538	9265.292969	2723.092285	18.634066
381.136993	1209.007813	9276.592773	2707.273438	18.571426
381.501740	1204.488159	9267.552734	2897.099121	20.992155
381.866486	1220.306885	9263.033203	2811.225586	19.780838
382.231110	1206.747925	9172.640625	2734.391357	19.177303
382.595764	1195.448853	9301.450195	2723.092285	18.845833
382.960327	1209.007813	9231.395508	2743.430664	19.126760
383.324951	1224.826538	9376.024414	2673.375977	17.771002
383.689453	1209.007813	9389.583984	2716.312744	18.425413
384.053986	1229.346191	9640.424805	2777.328125	18.404085
384.418396	1229.346191	9597.488281	2725.352051	17.877394
384.782867	1222.566772	9807.651367	2797.666504	18.346931
385.147217	1249.684692	9979.398438	2874.500732	18.612478
385.511597	1215.787231	9999.737305	2820.264893	18.266014
385.875885	1238.385498	10173.744141	2709.533203	16.464338
386.240204	1251.944458	10327.412109	2657.557373	15.488050
386.604401	1312.959839	10058.493164	2648.518066	15.271318
386.968628	1279.062378	10562.434570	2858.681885	17.015579
387.332764	1265.503418	10255.097656	2675.635986	15.686276
387.696930	1242.905151	10496.899414	2833.823730	17.191696
388.061005	1360.416260	10711.583008	2917.437500	16.650555
388.425140	1229.346191	10521.757813	2804.446045	16.950388
388.789124	1292.621338	10591.812500	2795.406738	16.160387
389.153168	1301.660645	10695.763672	2811.225586	16.069281
389.517090	1161.551392	10503.678711	2684.675293	16.303823
389.881042	1218.047119	10429.104492	2736.651123	16.486750
390.244873	1199.968506	10331.931641	2693.714600	16.357338
390.608734	1215.787231	10594.072266	2718.572510	16.024094
390.972534	1231.606079	10657.346680	2684.675293	15.415969
391.336304	1195.448853	10996.321289	2623.659912	14.572286
391.700043	1233.865845	11125.130859	2639.478760	14.210649
392.063751	1195.448853	11511.561523	2628.179443	13.888280
392.427399	1186.409546	11536.419922	2727.611816	14.890828
392.791077	1351.376953	12026.802734	2980.712646	15.262489
393.154663	1283.582031	11866.354492	2686.935059	13.260732
393.518219	1267.763306	11570.317383	2743.430664	14.323317
393.881744	1274.542725	11821.158203	2705.013672	13.563318
394.245209	1188.669312	11344.334961	2657.557373	14.463730
394.608704	1166.071045	11518.341797	2691.454590	14.734773
394.972107	1279.062378	11457.326172	2747.950439	14.431618
395.335480	1240.645386	11751.103516	2671.116211	13.609976
395.698792	1150.252197	11579.356445	2686.935059	14.734562
396.062103	1403.352905	11773.702148	2718.572510	12.682500
396.425385	1249.684692	11192.925781	2537.786377	12.954545
396.788635	1209.007813	11104.792969	2393.157471	11.966202
397.151825	1161.551392	10892.369141	2436.094238	13.098004
397.514984	1202.228271	10858.471680	2472.251465	13.152353
397.878113	1233.865845	10591.812500	2469.991699	13.209372
398.241180	1154.771851	10406.505859	2447.393311	13.971666
398.604248	1195.448853	10440.403320	2393.157471	12.955269
398.967285	1288.101685	10284.475586	2377.338623	12.107511
399.330231	1256.464111	10399.726563	2420.275391	12.728621
399.693176	1227.086426	10092.389648	2368.299316	12.872803
400.056091	1238.385498	10370.348633	2368.299316	12.373176
400.418976	1193.188965	10139.846680	2357.000244	13.008335
400.781830	1206.747925	10313.853516	2334.401855	12.382133
401.144592	1175.110352	10085.610352	2295.984863	12.579255
401.507355	1202.228271	10087.870117	2347.960938	12.894203
401.870087	1193.188965	10063.012695	2298.244629	12.458597
402.232758	1204.488159	10234.758789	2320.843018	12.362364
402.595428	1378.494873	10433.624023	2323.102783	10.431745
402.958038	1256.464111	10474.300781	2293.725098	11.252759
403.320618	1186.409546	10388.427734	2286.945557	11.959723
403.683167	1274.542725	11118.351563	2257.567871	9.986228
404.045654	1229.346191	11129.651367	2338.921631	11.207488
404.408142	1159.291626	11220.043945	2357.000244	11.904762
404.770569	1211.267578	11285.579102	2262.087402	10.430686
405.132996	1263.243652	11764.662109	2469.991699	11.491286
405.495331	1199.968506	11827.937500	2429.314697	11.567085
405.857666	1294.881226	12169.171875	2508.408691	11.159601
406.219940	1247.424805	11983.866211	2332.142090	10.103136
406.582214	1199.968506	11787.260742	2347.960938	10.843117
406.944427	1258.723999	11742.064453	2436.094238	11.230868
407.306549	1240.645386	11620.033203	2264.347168	9.862834
407.668732	1229.346191	11717.206055	2343.441162	10.622711
408.030792	1238.385498	11333.035156	2336.661865	10.879787
408.392914	1168.330933	11461.845703	2264.347168	10.647638
408.754883	1245.165039	11163.548828	2307.283936	10.708589
409.116943	1260.983765	11296.877930	2273.386475	10.087817
409.478882	1251.944458	11436.987305	2271.126709	10.006657
409.840820	1385.274292	11705.907227	2345.701172	9.305891
410.202667	1190.929199	11649.411133	2210.111328	9.745028
410.564575	1236.125732	11780.481445	2316.323242	10.244320
410.926331	1175.110352	11816.638672	2341.181396	10.957741
411.288147	1202.228271	11936.409180	2284.685791	10.084212
411.649872	1236.125732	11719.465820	2259.827637	9.765036
412.011566	1227.086426	11606.474609	2343.441162	10.755496
412.373199	1236.125732	11527.380859	2237.229248	9.727711
412.734894	1213.527466	11525.121094	2196.552490	9.533201
413.096436	1240.645386	11272.020508	2198.812256	9.551701
413.458008	1199.968506	11425.688477	2196.552490	9.745856
413.819519	1260.983765	11733.025391	2160.395264	8.588693
414.181030	1229.346191	11751.103516	2212.371338	9.342784
414.542450	1222.566772	11529.640625	2144.576416	8.945406
414.903870	1229.346191	11739.804688	2255.307861	9.761340
415.265198	1179.630005	11834.716797	2255.307861	10.095440
415.626587	1157.031738	11730.765625	2115.198730	9.061766
415.987854	1242.905151	12110.416016	2146.836182	8.317738
416.349152	1186.409546	12316.060547	2246.268555	9.522841
416.710327	1258.723999	12435.831055	2237.229248	8.754548
417.071533	1279.062378	12435.831055	2173.954102	8.021066
417.432678	1213.527466	12871.978516	2305.024170	9.362279
417.793823	1136.693237	13201.913086	2280.166016	9.477430
418.154877	1175.110352	13638.059570	2194.292725	8.177698
418.515930	1258.723999	13986.073242	2309.543701	8.256391
418.876923	1224.826538	14435.778320	2418.015625	9.031817
419.237915	1299.400879	15188.301758	2485.810303	8.542141
419.598816	1197.708618	15482.079102	2366.039551	8.179086
419.959717	1227.086426	16047.036133	2481.290771	8.462946
420.320526	1179.630005	16704.646484	2440.613770	8.122270
420.681396	1224.826538	17432.310547	2616.880371	8.588957
421.042145	1206.747925	17556.601563	2664.336670	8.914996
421.402924	1249.684692	18347.541016	2610.100830	7.956648
421.763580	1238.385498	18754.308594	2763.769287	8.708554
422.124298	1202.228271	19448.076172	2732.131592	8.384940
422.484894	1288.101685	19635.642578	2833.823730	8.424683
422.845520	1209.007813	19332.826172	2705.013672	8.254364
423.206055	1218.047119	19445.816406	2668.856445	7.959335
423.566589	1197.708618	19131.701172	2714.052979	8.455141
423.927063	1145.732544	19292.148438	2741.170898	8.792030
424.287506	1240.645386	18711.373047	2623.659912	7.916181
424.647949	1227.086426	19115.880859	2671.116211	8.072259
425.008301	1227.086426	19378.021484	2727.611816	8.266932
425.368652	1242.905151	19511.351563	2634.958984	7.619990
425.728943	1209.007813	19341.865234	2686.935059	8.150548
426.089203	1114.094971	19262.771484	2727.611816	8.890549
426.449432	1181.889893	18998.371094	2531.006836	7.572298
426.809601	1222.566772	19032.267578	2573.943604	7.587869
427.169739	1229.346191	18749.789063	2544.565918	7.506772
427.529846	1355.896606	18480.871094	2619.140137	7.376616
427.889954	1358.156372	18164.494141	2662.076904	7.758505
428.250000	1270.023071	17450.388672	2451.912842	7.304469
428.609985	1213.527466	17258.302734	2479.031006	7.887325
428.969940	1231.606079	17036.839844	2456.432617	7.749500
429.329865	1297.140991	16677.527344	2460.952393	7.566854
429.689789	1283.582031	16397.308594	2431.574463	7.595694
430.049622	1283.582031	16460.583984	2476.770996	7.861823
430.409454	1276.802612	16139.688477	2458.692383	7.951953
430.769226	1290.361572	15583.771484	2377.338623	7.604743
431.128937	1254.204346	15540.834961	2361.519775	7.750710
431.488678	1199.968506	15680.943359	2318.583252	7.724720
431.848328	1179.630005	15963.421875	2386.377930	8.162642
432.207947	1190.929199	15581.511719	2241.749023	7.302135
432.567566	1254.204346	15782.635742	2345.701172	7.512833
432.927124	1240.645386	16254.940430	2427.054932	7.901866
433.286621	1231.606079	16408.607422	2406.716309	7.742704
433.646118	1299.400879	16736.283203	2445.133545	7.422047
434.005554	1260.983765	16799.558594	2384.118164	7.228040
434.364960	1279.062378	16860.574219	2526.487305	8.005802
434.724335	1188.669312	16623.291016	2381.858398	7.730601
435.083649	1306.180420	16756.621094	2456.432617	7.444786
435.442932	1220.306885	16388.269531	2366.039551	7.553636
435.802216	1337.817993	16813.117188	2411.236084	6.936332
436.161407	1254.204346	16537.417969	2402.196777	7.511459
436.520630	1254.204346	16286.577148	2354.740479	7.321107
436.879761	1220.306885	16763.400391	2375.078857	7.429486
437.238831	1202.228271	16975.824219	2451.912842	7.922636
437.597931	1233.865845	16930.628906	2361.519775	7.183990
437.956940	1222.566772	16876.392578	2359.260010	7.261440
438.315948	1213.527466	16980.343750	2479.031006	8.026373
438.674896	1270.023071	17127.234375	2456.432617	7.481830
439.033844	1236.125732	16539.677734	2436.094238	7.841111
439.392700	1193.188965	16822.156250	2413.495850	7.807982
439.751556	1279.062378	17134.013672	2393.157471	7.026796
440.110352	1147.992432	17823.259766	2436.094238	7.724625
440.469116	1288.101685	17877.496094	2467.731689	7.110748
440.827850	1163.811279	18114.777344	2483.550537	7.785628
441.186554	1310.700073	19167.857422	2639.478760	7.441154
441.545197	1229.346191	19154.298828	2569.424072	7.476047
441.903809	1276.802612	19470.673828	2585.242676	7.191653
442.262390	1260.983765	18980.292969	2535.526611	7.192960
442.620941	1260.983765	18923.796875	2610.100830	7.638178
442.979462	1224.826538	19131.701172	2531.006836	7.294295
443.337921	1240.645386	18625.500000	2458.692383	7.006368
443.696350	1256.464111	18625.500000	2619.140137	7.845433
444.054718	1229.346191	17945.291016	2546.825684	7.881573
444.413086	1376.234985	18923.796875	2662.076904	7.327752
444.771423	1249.684692	18989.332031	2603.321289	7.630573
445.129669	1247.424805	18150.935547	2531.006836	7.593582
445.487915	1202.228271	17271.863281	2490.330078	8.015750
445.846130	1175.110352	18291.044922	2542.306152	7.987854
446.204285	1163.811279	17888.794922	2411.236084	7.458451
446.562408	1279.062378	19023.228516	2628.179443	7.603158
446.920532	1170.590698	19631.123047	2650.777832	8.018117
447.278595	1331.038452	20288.732422	2745.690430	7.462152
447.636566	1202.228271	20810.751953	2691.454590	7.594791
447.994568	1256.464111	21423.166016	2838.343506	7.844017
448.352509	1220.306885	21350.851563	2833.823730	8.015266
448.710419	1150.252197	21090.970703	2711.793213	7.830916
449.068237	1218.047119	20668.382813	2750.210205	7.877309
449.426056	1267.763306	21215.261719	2756.989746	7.465731
449.783844	1251.944458	20485.337891	2705.013672	7.554929
450.141602	1265.503418	20049.191406	2779.587891	8.060635
450.499329	1218.047119	19857.105469	2775.068359	8.353540
450.856964	1292.621338	19228.873047	2707.273438	7.887111
451.214630	1199.968506	19246.951172	2628.179443	7.913849
451.572235	1209.007813	18851.482422	2571.683838	7.723837
451.929779	1184.149658	18975.773438	2641.738525	8.192557
452.287323	1229.346191	18643.578125	2648.518066	8.149494
452.644806	1306.180420	18752.048828	2716.312744	8.082901
453.002258	1292.621338	18844.703125	2707.273438	8.059739
453.359650	1292.621338	18309.123047	2653.037598	7.994688
453.717010	1369.455566	18444.712891	2716.312744	7.887771
454.074341	1283.582031	18144.156250	2628.179443	7.974802
454.431641	1276.802612	18001.787109	2589.762451	7.850290
454.788910	1240.645386	17588.238281	2560.384766	8.072989
455.146118	1233.865845	17534.001953	2781.847900	9.496743
455.503296	1209.007813	17285.421875	2585.242676	8.560583
455.860443	1184.149658	17359.996094	2702.753906	9.388098
456.217560	1285.841919	17179.208984	2718.572510	9.014645
456.574615	1294.881226	17369.035156	2784.107666	9.264727
456.931641	1297.140991	17039.099609	2838.343506	9.790411
457.288635	1263.243652	17258.302734	2745.690430	9.268155
457.645599	1247.424805	17063.958984	2662.076904	8.944135
458.002502	1299.400879	17475.246094	2750.210205	8.968986
458.359375	1199.968506	17425.531250	2732.131592	9.442897
458.716217	1247.424805	18062.802734	2691.454590	8.587554
459.073029	1204.488159	18982.552734	2845.123047	9.228422
459.429779	1283.582031	19958.796875	3095.963867	9.704744
459.786499	1274.542725	21323.732422	3195.396240	9.580704
460.143219	1272.282959	22751.945313	3222.514160	9.079432
460.499847	1170.590698	22354.214844	3242.852539	9.782375
460.856476	1258.723999	23398.255859	3353.584229	9.462081
461.213043	1292.621338	23536.105469	3321.946533	9.123235
461.569550	1206.747925	23217.468750	3405.560303	9.989735
461.926056	1346.857300	22652.511719	3471.095215	9.970301
462.282501	1256.464111	21780.218750	3378.442383	10.339133
462.638916	1254.204346	20702.281250	3055.286865	9.260981
462.995331	1175.110352	20449.179688	3193.136475	10.470160
463.351654	1231.606079	20227.716797	3177.317627	10.242683
463.707947	1272.282959	19741.853516	3245.112549	10.681513
464.064209	1351.376953	19280.849609	3256.411621	10.625157
464.420441	1240.645386	19036.787109	3177.317627	10.882540
464.776642	1209.007813	18406.296875	3170.538086	11.406043
465.132782	1249.684692	18580.302734	3242.852539	11.500848
465.488892	1254.204346	18415.335938	3312.907227	11.996312
465.844971	1206.747925	18695.554688	3233.813232	11.590644
466.201019	1254.204346	18733.970703	3256.411621	11.454429
466.557007	1242.905151	19000.630859	3224.773926	11.160600
466.912964	1251.944458	19427.738281	3398.780762	11.811515
467.268890	1213.527466	19622.083984	3362.623535	11.674441
467.624756	1220.306885	19364.462891	3453.016602	12.305393
467.980591	1242.905151	20046.931641	3597.645508	12.522532
468.336426	1213.527466	19755.412109	3593.125977	12.833639
468.692169	1213.527466	19617.564453	3480.134521	12.315814
469.047913	1211.267578	19005.150391	3599.905273	13.423926
469.403625	1218.047119	19255.990234	3588.606201	13.142070
469.759247	1134.433472	18935.095703	3631.542969	14.028183
470.114838	1265.503418	18600.640625	3690.298584	13.987747
470.470459	1175.110352	18666.175781	3624.763428	14.005167
470.825958	1141.212891	18295.564453	3595.385742	14.306416
471.181488	1247.424805	18288.785156	3884.643555	15.475401
471.536926	1211.267578	18336.242188	3780.691650	15.003959
471.892365	1184.149658	18385.957031	3712.896729	14.700474
472.247742	1254.204346	18765.609375	3828.147949	14.698670
472.603058	1181.889893	18593.861328	3841.707031	15.275796
472.958374	1215.787231	19113.621094	3963.737549	15.353535
473.313629	1172.850586	18991.591797	3862.045410	15.091946
473.668884	1238.385498	19231.132813	4259.774902	16.792261
474.024048	1227.086426	19622.083984	4264.294922	16.511057
474.379211	1265.503418	19457.115234	4361.467285	17.018635
474.734314	1242.905151	19574.626953	4413.443359	17.295364
475.089417	1179.630005	19330.564453	4427.002441	17.890940
475.444458	1193.188965	19518.130859	4397.624512	17.486744
475.799438	1204.488159	19344.125000	4377.286133	17.490967
476.154388	1150.252197	19599.484375	4569.371582	18.532583
476.509308	1224.826538	20205.119141	4662.024414	18.109297
476.864197	1270.023071	20374.605469	4804.393555	18.500120
477.219025	1227.086426	20675.162109	4881.227539	18.789217
477.573822	1188.669312	20977.980469	5238.280273	20.463627
477.928619	1213.527466	21683.046875	5154.666992	19.253698
478.283325	1222.566772	21696.605469	5330.933105	20.066223
478.638000	1168.330933	21994.902344	5502.680176	20.811630
478.992676	1186.409546	22458.166016	5647.309082	20.970997
479.347260	1453.069214	22903.353516	5911.708984	20.785923
479.701843	1249.684692	23086.398438	5821.315918	20.935530
480.056366	1184.149658	23081.878906	5886.851074	21.475748
480.410858	1281.322266	23811.802734	6169.329590	21.695087
480.765320	1251.944458	24220.832031	6451.807617	22.638725
481.119751	1274.542725	25007.251953	6460.847168	21.852982
481.474091	1204.488159	26186.882813	6677.790527	21.908638
481.828430	1188.669312	27680.628906	6910.552734	21.598566
482.182709	1258.723999	29239.910156	7735.390137	23.146503
482.536987	1283.582031	31205.958984	7922.955566	22.188658
482.891174	1254.204346	34148.253906	8844.964844	23.076393
483.245361	1190.929199	38288.257813	9920.643555	23.531923
483.599518	1238.385498	44403.351563	11561.278320	23.914980
483.953644	1231.606079	49738.804688	12716.049805	23.675751
484.307678	1242.905151	53241.539063	14024.490234	24.580618
484.661713	1202.228271	55250.523438	14996.215820	25.521595
485.015686	1242.905151	56247.109375	15332.930664	25.616270
485.369659	1175.110352	55659.554688	15335.190430	25.989216
485.723572	1254.204346	53661.867188	14774.752930	25.798801
486.077423	1202.228271	51004.308594	14010.931641	25.719212
486.431274	1193.188965	48538.835938	13138.637695	25.230301
486.785034	1270.023071	47097.066406	13238.070313	26.115686
487.138794	1125.394165	46247.371094	13036.945313	26.398558
487.492523	1285.841919	47140.003906	13622.241211	26.903555
487.846191	1242.905151	48152.406250	13751.050781	26.664419
488.199829	1247.424805	48421.328125	14153.300781	27.358084
488.553436	1288.101685	48963.683594	13922.797852	26.501400
488.906982	1211.267578	48127.546875	14329.567383	27.961082
489.260529	1197.708618	46941.140625	13902.459961	27.773933
489.613983	1249.684692	45314.062500	13687.775391	28.227087
489.967438	1263.243652	42927.683594	13005.307617	28.182459
490.320831	1256.464111	41115.304688	12777.065430	28.903505
490.674194	1236.125732	40310.804688	12392.894531	28.552425
491.027527	1168.330933	40114.199219	12519.445313	29.145876
491.380798	1199.968506	41099.484375	12844.860352	29.185547
491.734070	1238.385498	42839.550781	13459.533203	29.376936
492.087250	1258.723999	43671.167969	13760.090820	29.475704
492.440430	1267.763306	43757.042969	13683.255859	29.220293
492.793549	1227.086426	43354.792969	13470.832031	29.063404
493.146637	1195.448853	42602.269531	13353.321289	29.362003
493.499695	1166.071045	39998.949219	12630.176758	29.521646
493.852692	1195.448853	37339.132813	11947.708984	29.748655
494.205658	1231.606079	35074.785156	11308.177734	29.774303
494.558594	1218.047119	32988.964844	10905.927734	30.492920
494.911499	1274.542725	30663.601563	10460.742188	31.257208
495.264374	1274.542725	29416.175781	10078.831055	31.285633
495.617188	1292.621338	28392.474609	9800.872070	31.395929
495.969940	1202.228271	28469.308594	9699.179688	31.161940
496.322693	1170.590698	27834.296875	9543.251953	31.400965
496.675385	1292.621338	27931.468750	9920.643555	32.388874
497.028015	1358.156372	28500.945313	9807.651367	31.129797
497.380676	1270.023071	28595.859375	9918.383789	31.649023
497.733246	1227.086426	28311.121094	9968.099609	32.273674
498.085785	1841.759521	29391.318359	10598.591797	31.785744
498.438263	1256.464111	28419.591797	9907.083984	31.846924
498.790710	1263.243652	28274.962891	9866.407227	31.849747
499.143158	1292.621338	27664.810547	9620.085938	31.576691
499.495544	1251.944458	27310.017578	9624.605469	32.130775
499.847870	1086.977051	27226.402344	9468.677734	32.065361
500.200165	1209.007813	26241.119141	9305.969727	32.346302
500.552429	1154.771851	26143.945313	9163.600586	32.049194
500.904663	1229.346191	25278.431641	8899.201172	31.892502
501.256866	1166.071045	25563.169922	9043.830078	32.289734
501.609009	1294.881226	24679.578125	8960.216797	32.779282
501.961090	1215.787231	24329.304688	8689.037109	32.332809
502.313171	1224.826538	24618.562500	8652.879883	31.752317
502.665253	1168.330933	24223.091797	8630.281250	32.366199
503.017181	1242.905151	24087.501953	8591.864258	32.169353
503.369110	1163.811279	24141.738281	8759.091797	33.054680
503.721069	1265.503418	24195.974609	8641.581055	32.167145
504.072937	1238.385498	24652.458984	8467.574219	30.875397
504.424774	1281.322266	24338.343750	8589.604492	31.696558
504.776520	1245.165039	24324.785156	8415.597656	31.068243
505.128265	1218.047119	24507.830078	8420.118164	30.923737
505.480042	1292.621338	24354.162109	8639.321289	31.856936
505.831665	1270.023071	24550.767578	8345.542969	30.392157
506.183289	1134.433472	23918.015625	8492.432617	32.295181
506.534882	1254.204346	24216.312500	8417.857422	31.197718
506.886505	1227.086426	23913.496094	8246.111328	30.939337
507.237946	1143.472778	24089.761719	8270.968750	31.061651
507.589417	1163.811279	24003.888672	8298.086914	31.235775
507.940857	1337.817993	24060.384766	8298.086914	30.631527
508.292297	1247.424805	24302.185547	8298.086914	30.582237
508.643616	1242.905151	24401.619141	8223.512695	30.142464
508.994904	1245.165039	24751.892578	8417.857422	30.513361
509.346191	1308.440186	24792.568359	8555.707031	30.860275
509.697479	1199.968506	25007.251953	8402.039063	30.251543
510.048645	1143.472778	25407.242188	8508.250977	30.352985
510.399780	1258.723999	25470.517578	8456.275391	29.727461
510.750916	1265.503418	25825.310547	8675.478516	30.171146
511.102051	1204.488159	25967.679688	8603.164063	29.877716
511.453033	1204.488159	26026.435547	8781.690430	30.526220
511.804016	1247.424805	26315.693359	8555.707031	29.153517
512.154968	1166.071045	26595.912109	8587.344727	29.183325
512.505920	1231.606079	26738.281250	8544.408203	28.670151
512.856750	1206.747925	26627.548828	8668.698242	29.353718
513.207581	1308.440186	26514.556641	8515.030273	28.590639
513.558411	1263.243652	26510.037109	8670.958984	29.341213
513.909180	1242.905151	26388.007813	8465.314453	28.722925
514.259888	1227.086426	26507.777344	8374.920898	28.273888
514.610535	1229.346191	26039.994141	8564.747070	29.565535
514.961182	1179.630005	25809.490234	8273.228516	28.800808
515.311829	1258.723999	25759.775391	8214.473633	28.389597
515.662354	1355.896606	25888.585938	8313.906250	28.362198
516.012878	1197.708618	26098.750000	8309.385742	28.559759
516.363281	1125.394165	26295.353516	8327.464844	28.613756
516.713745	1168.330933	26202.701172	8067.584473	27.559124
517.064209	1222.566772	26733.759766	8316.166016	27.805830
517.414490	1242.905151	27011.718750	8524.069336	28.255720
517.764832	1199.968506	27922.429688	8623.501953	27.780125
518.115173	1150.252197	28912.234375	8763.611328	27.423687
518.465393	1260.983765	29967.574219	8939.877930	26.749586
518.815552	1184.149658	30566.427734	9152.301758	27.118906
519.165710	1303.920532	31359.626953	9346.647461	26.759401
519.515869	1168.330933	31034.212891	9443.819336	27.708836
519.865967	1240.645386	31481.658203	9186.199219	26.274099
520.216003	1263.243652	30842.126953	9344.386719	27.320650
520.565918	1245.165039	30575.466797	9197.498047	27.113029
520.915955	1199.968506	29522.388672	8915.019531	27.240084
521.265869	1240.645386	29151.775391	8630.281250	26.475588
521.615723	1193.188965	28575.519531	8738.752930	27.556326
521.965576	1310.700073	28584.558594	8664.178711	26.961636
522.315369	1229.346191	27933.728516	8614.462891	27.655073
522.665161	1154.771851	27642.210938	8243.851563	26.763929
523.014832	1242.905151	27847.855469	8578.305664	27.571562
523.364502	1254.204346	27997.003906	8618.982422	27.539295
523.714172	1199.968506	28168.751953	8496.952148	27.057148
524.063782	1285.841919	28824.101563	8675.478516	26.834072
524.413330	1199.968506	28844.439453	8729.713867	27.237799
524.762817	1249.684692	30012.771484	8770.390625	26.147076
525.112366	1294.881226	30772.072266	8994.114258	26.119289
525.461792	1181.889893	32679.367188	9450.598633	26.251972
525.811157	1353.636719	33400.253906	9647.204102	25.879698
526.160522	1109.575317	35361.781250	9893.525391	25.644917
526.509827	1324.259033	35777.589844	10257.357422	25.928112
526.859131	1138.953125	37504.097656	10492.379883	25.720858
527.208313	1204.488159	39382.015625	11283.319336	26.399906
527.557495	1346.857300	40498.371094	11507.041992	25.950935
527.906738	1197.708618	43241.800781	11900.251953	25.455521
528.255859	1181.889893	46900.460938	12946.552734	25.732788
528.604919	1202.228271	50638.218750	13834.665039	25.553116
528.953918	1204.488159	53096.910156	14666.281250	25.941732
529.302917	1288.101685	54091.234375	15369.087891	26.666952
529.651917	1358.156372	54606.472656	15400.725586	26.371857
530.000793	1202.228271	54036.996094	15091.128906	26.287424
530.349609	1270.023071	52416.703125	14449.337891	25.767683
530.698547	1260.983765	50003.207031	13647.098633	25.411470
531.047302	1392.053833	46394.261719	12822.261719	25.399216
531.396057	1358.156372	44249.683594	12309.281250	25.532141
531.744751	1199.968506	41971.777344	11375.972656	24.958431
532.093445	1193.188965	40710.792969	10892.369141	24.543945
532.442139	1308.440186	39822.683594	11131.911133	25.506073
532.790710	1258.723999	39924.375000	10994.061523	25.178259
533.139160	1218.047119	41293.828125	11346.594727	25.273489
533.487732	1231.606079	41879.125000	11477.664063	25.207092
533.836243	1285.841919	42755.937500	11699.127930	25.110352
534.184631	1145.732544	43058.753906	11581.616211	24.898907
534.533020	1202.228271	42798.875000	11615.513672	25.033953
534.881348	1218.047119	41264.453125	11082.194336	24.631792
535.229736	1184.149658	40010.246094	10894.628906	25.010187
535.577942	1267.763306	38295.039063	10731.920898	25.559959
535.926086	1328.778687	37302.972656	10420.065430	25.271690
536.274353	1195.448853	36509.773438	10284.475586	25.737507
536.622498	1245.165039	36451.019531	10090.129883	25.123562
536.970642	1308.440186	36604.687500	10264.136719	25.372942
537.318665	1179.630005	35766.292969	10103.689453	25.802025
537.666687	1195.448853	35721.093750	10031.375000	25.592356
538.014709	1240.645386	34699.652344	9864.147461	25.773335
538.362610	1238.385498	34234.128906	9479.976563	24.977741
538.710510	1184.149658	33169.750000	9235.915039	25.173096
539.058411	1215.787231	32073.732422	9084.506836	25.499817
539.406250	1213.527466	31700.861328	9147.782227	26.024757
539.753967	1204.488159	31727.980469	9082.247070	25.808838
540.101746	1274.542725	32161.867188	9253.994141	25.834064
540.449463	1179.630005	33786.683594	9371.504883	25.123016
540.797119	1274.542725	35926.738281	10216.680664	25.805401
541.144714	1270.023071	38150.410156	10727.401367	25.643381
541.492249	1206.747925	40358.261719	11165.808594	25.437229
541.839844	1240.645386	42001.156250	11540.939453	25.270277
542.187378	1288.101685	43395.468750	12024.542969	25.497774
542.534790	1233.865845	43472.304688	11850.536133	25.135092
542.882202	1233.865845	43187.566406	11968.046875	25.585779
543.229553	1159.291626	41809.070313	11529.640625	25.511452
543.576965	1245.165039	40200.074219	11301.397461	25.815058
543.924194	1231.606079	38245.324219	10600.851563	25.312899
544.271423	1256.464111	36631.804688	10164.705078	25.182066
544.618652	1242.905151	35058.964844	10020.075195	25.955627
544.965881	1324.259033	33736.964844	9857.368164	26.326433
545.312988	1161.551392	32164.126953	9333.087891	26.357605
545.660034	1310.700073	31481.658203	9181.679688	26.087933
546.007141	1301.660645	30530.271484	9154.561523	26.867170
546.354126	1186.409546	29908.818359	8919.540039	26.923683
546.701111	1202.228271	29879.441406	9014.452148	27.241920
547.048035	1272.282959	29929.156250	8957.957031	26.819653
547.394836	1204.488159	29635.378906	9050.609375	27.597170
547.741699	1197.708618	28627.496094	8890.162109	28.044161
548.088562	1254.204346	28647.833984	8887.902344	27.866692
548.435303	1190.929199	27874.972656	8664.178711	28.006437
548.781921	1204.488159	26894.208984	8573.786133	28.685783
549.128662	1215.787231	26055.812500	8239.331055	28.275108
549.475342	1215.787231	25267.132813	8214.473633	29.098940
549.821899	1249.684692	24469.414063	8038.207031	29.236012
550.168457	1285.841919	24130.439453	7965.892578	29.241272
550.515015	1337.817993	23176.792969	7972.671875	30.380795
550.861511	1254.204346	22810.699219	7807.704590	30.401512
551.207886	1288.101685	22098.853516	7850.641113	31.534370
551.554260	1288.101685	22275.121094	7954.593262	31.764833
551.900635	1220.306885	22010.720703	7909.396484	32.173912
552.247009	1188.669312	22069.476563	7832.562500	31.818182
552.593262	1249.684692	22135.011719	7809.964355	31.410952
552.939392	1310.700073	22284.160156	8207.694336	32.884388
553.285645	1229.346191	22553.080078	8255.150391	32.948284
553.631775	1224.826538	22412.970703	8390.740234	33.820393
553.977905	1177.370239	21857.052734	8191.875000	33.919792
554.323975	1260.983765	21965.523438	8180.576172	33.420654
554.669983	1213.527466	21983.603516	8402.039063	34.609943
555.015991	1163.811279	21572.314453	8241.590820	34.680538
555.361877	1163.811279	21418.646484	8374.920898	35.601913
555.707825	1188.669312	21050.294922	8354.583008	36.079189
556.053711	1197.708618	20577.990234	8456.275391	37.453362
556.399536	1258.723999	20340.708984	8483.392578	37.861202
556.745239	1166.071045	20374.605469	8361.362305	37.458820
557.091003	1199.968506	20015.292969	8614.462891	39.406677
557.436707	1245.165039	20019.812500	8591.864258	39.130955
557.782410	1229.346191	19680.837891	8713.895508	40.563381
558.127991	1238.385498	19710.216797	8521.809570	39.429893
558.473511	1231.606079	19875.183594	8835.925781	40.787876
558.819092	1190.929199	19341.865234	8716.155273	41.459164
559.164612	1202.228271	19093.283203	8779.430664	42.351902
559.510010	1215.787231	19113.621094	9091.286133	44.002525
559.855408	1163.811279	19389.320313	9163.600586	43.893364
560.200806	1206.747925	19231.132813	9301.450195	44.909729
560.546143	1150.252197	19206.275391	9258.513672	44.906132
560.891357	1254.204346	19172.376953	9534.212891	46.210121
561.236633	1272.282959	19287.628906	9622.345703	46.349720
561.581848	1181.889893	19538.468750	9710.479492	46.460674
561.927002	1204.488159	19244.691406	9798.612305	47.638733
562.272095	1233.865845	19533.949219	10094.650391	48.419365
562.617126	1247.424805	19606.263672	10225.719727	48.904480
562.962219	1279.062378	19298.927734	10338.710938	50.275894
563.307251	1288.101685	19398.359375	10399.726563	50.311954
563.652161	1227.086426	19443.556641	10594.072266	51.420422
563.997009	1272.282959	19124.921875	10704.803711	52.835442
564.341919	1303.920532	19075.205078	10842.653320	53.674973
564.686768	1218.047119	19427.738281	11052.816406	54.008434
565.031555	1227.086426	19488.753906	11362.413086	55.500549
565.376282	1364.935913	19848.066406	11608.734375	55.422421
565.721008	1229.346191	20024.332031	11762.402344	56.041843
566.065674	1166.071045	20381.384766	12067.479492	56.732918
566.410278	1233.865845	20679.681641	12031.322266	55.525856
566.754822	1145.732544	20803.972656	12544.302734	57.983677
567.099365	1170.590698	21258.199219	12844.860352	58.116768
567.443909	1188.669312	21407.347656	13036.945313	58.600651
567.788330	1254.204346	21133.908203	13043.724609	59.304310
568.132751	1224.826538	20813.011719	13183.833984	61.052147
568.477112	1161.551392	20469.517578	13332.983398	63.038391
568.821533	1190.929199	20295.511719	13445.974609	64.147148
569.165771	1272.282959	19992.695313	13647.098633	66.103325
569.510010	1186.409546	20358.787109	13658.398438	65.051865
569.854248	1288.101685	19841.287109	13823.365234	67.563942
570.198364	1251.944458	20022.072266	14178.158203	68.865883
570.542542	1220.306885	20268.394531	14485.495117	69.640526
570.886536	1222.566772	20026.591797	14806.390625	72.238914
571.230591	1166.071045	20629.966797	14835.768555	70.231041
571.574646	1147.992432	20487.597656	15278.694336	73.066132
571.918518	1209.007813	20706.800781	15430.102539	72.936943
572.262451	1254.204346	21515.818359	15945.343750	72.507256
572.606323	1258.723999	21316.953125	16155.507813	74.267693
572.950195	1199.968506	21454.802734	16575.835938	75.912086
573.293945	1188.669312	21201.703125	16758.880859	77.800362
573.637695	1179.630005	21122.609375	16738.542969	78.016998
573.981384	1209.007813	21122.609375	16930.628906	78.949158
574.325134	1303.920532	20880.806641	17088.816406	80.630264
574.668701	1197.708618	20609.626953	17389.373047	83.410942
575.012268	1195.448853	20514.714844	17337.396484	83.553627
575.355774	1138.953125	20519.234375	17646.994141	85.179573
575.699341	1193.188965	20365.566406	17771.285156	86.468651
576.042725	1315.219727	20480.818359	18261.666016	88.421165
576.386169	1256.464111	20336.189453	18329.460938	89.482407
576.729553	1249.684692	19893.261719	18132.857422	90.557579
577.072876	1383.014526	19640.162109	18306.863281	92.697113
577.416138	1236.125732	19219.833984	18424.375000	95.576782
577.759399	1249.684692	18966.732422	18363.359375	96.594391
578.102600	1132.173584	18514.767578	18431.154297	99.518982
578.445801	1152.512085	18031.164063	18620.980469	103.494453
578.788940	1152.512085	17952.070313	18783.687500	104.950233
579.131897	1240.645386	17658.292969	18783.687500	106.854782
579.474976	1242.905151	17330.617188	19115.880859	111.097069
579.817993	1209.007813	16923.849609	18792.726563	111.892433
580.160950	1195.448853	16519.339844	19036.787109	116.428253
580.503845	1231.606079	16510.300781	18932.835938	115.855652
580.846680	1202.228271	16225.562500	19005.150391	118.501808
581.189514	1242.905151	16426.687500	19138.480469	117.859802
581.532349	1285.841919	15995.059570	19294.408203	122.430481
581.875061	1159.291626	16105.791016	19567.847656	123.163002
582.217773	1220.306885	16182.625977	19450.335938	121.839592
582.560425	1324.259033	16053.815430	20157.662109	127.861298
582.903076	1256.464111	15717.100586	19857.105469	128.629471
583.245667	1175.110352	15529.535156	20155.402344	132.226074
583.588135	1188.669312	15870.769531	20474.039063	131.352936
583.930664	1270.023071	15667.384766	20392.683594	132.820587
584.273071	1159.291626	15491.118164	20738.437500	136.613068
584.615479	1245.165039	15337.450195	20959.900391	139.897354
584.957825	1247.424805	15586.031250	20869.507813	136.847900
585.300232	1215.787231	15308.072266	21050.294922	140.747284
585.642517	1188.669312	15289.993164	20846.910156	139.407043
585.984680	1251.944458	15436.882813	21529.376953	142.950439
586.326843	1254.204346	15233.498047	21443.503906	144.422882
586.669067	1301.660645	15253.835938	21712.423828	146.290894
587.011230	1265.503418	14978.137695	21707.904297	149.077118
587.353271	1238.385498	15181.521484	21592.652344	145.980560
587.695251	1161.551392	15138.584961	21829.935547	147.873901
588.037231	1222.566772	15097.908203	21877.390625	148.859924
588.379211	1209.007813	15253.835938	22444.607422	151.198715
588.721069	1254.204346	15253.835938	22275.121094	150.153351
589.062927	1213.527466	15393.945313	22064.957031	147.043823
589.404785	1328.778687	15470.780273	22772.283203	151.629898
589.746582	1163.811279	15491.118164	22833.298828	151.246063
590.088257	1238.385498	15518.236328	22968.888672	152.175995
590.429932	1220.306885	15796.195313	22928.210938	148.930222
590.771606	1206.747925	15680.943359	23057.021484	150.960190
591.113220	1233.865845	15771.336914	22867.195313	148.810822
591.454773	1369.455566	15766.817383	23506.726563	153.759232
591.796265	1247.424805	15586.031250	22993.746094	151.662720
592.137817	1279.062378	15321.630859	23344.019531	157.129074
592.479248	1177.370239	15174.742188	23047.982422	156.247986
592.820618	1181.889893	15283.213867	23047.982422	155.064102
593.161926	1175.110352	14973.618164	23081.878906	158.761871
593.503296	1249.684692	15154.404297	23375.656250	159.125610
593.844604	1215.787231	15163.443359	23271.705078	158.133514
594.185791	1281.322266	15208.639648	23321.421875	158.250854
594.526917	1249.684692	15466.259766	23441.191406	156.096008
594.868103	1265.503418	15473.040039	23310.121094	155.161423
595.209229	1267.763306	15633.487305	23581.300781	155.324844
595.550232	1308.440186	15703.541992	24123.660156	158.492950
595.891235	1213.527466	16051.555664	23902.197266	152.908920
596.232178	1227.086426	15997.319336	24148.517578	155.186676
596.573181	1342.337646	16449.285156	24580.144531	153.821991
596.914063	1254.204346	16736.283203	24537.208984	150.386810
597.254883	1233.865845	17285.421875	24625.341797	145.727158
597.595703	1258.723999	17233.445313	24666.017578	146.527084
597.936462	1213.527466	17346.437500	24989.173828	147.373581
598.277161	1218.047119	16969.044922	24783.529297	149.612625
598.617798	1224.826538	16487.703125	24482.972656	152.383759
598.958435	1199.968506	16306.916016	23906.716797	150.306656
599.299072	1254.204346	15954.382813	23481.869141	151.206757
599.639587	1279.062378	15572.471680	23429.892578	154.972336
599.980103	1247.424805	15120.506836	23131.595703	157.745560
600.320557	1308.440186	14957.798828	23020.863281	159.072845
600.661072	1179.630005	14722.777344	22568.898438	157.934250
601.001404	1202.228271	14390.582031	22853.636719	164.170670
601.341675	1279.062378	14508.093750	22342.916016	159.224457
601.681946	1222.566772	14275.331055	22214.105469	160.820633
602.022278	1181.889893	14460.636719	22067.216797	157.283859
602.362427	1157.031738	14381.542969	22379.072266	160.475037
602.702576	1213.527466	14709.217773	22347.435547	156.597458
603.042725	1181.889893	14957.798828	22177.947266	152.411407
603.382813	1281.322266	14880.964844	22593.755859	156.713196
603.722839	1256.464111	15511.457031	22941.769531	152.124268
604.062805	1326.518799	16001.838867	23127.076172	148.552505
604.402771	1385.274292	16535.158203	23748.529297	147.613388
604.742737	1290.361572	16505.781250	23515.765625	146.071579
605.082581	1231.606079	16831.195313	23662.654297	143.792557
605.422363	1229.346191	17258.302734	23698.812500	140.180466
605.762146	1184.149658	17185.988281	23384.695313	138.737457
606.101929	1222.566772	16980.343750	23549.664063	141.689377
606.441589	1206.747925	16573.576172	22973.408203	141.647064
606.781189	1265.503418	16191.665039	22496.583984	142.240723
607.120850	1218.047119	15687.723633	22661.550781	148.196152
607.460388	1166.071045	15425.583008	21881.910156	145.277344
607.799927	1215.787231	15258.356445	21762.140625	146.314774
608.139404	1215.787231	14740.855469	21396.046875	149.206345
608.478821	1247.424805	14910.342773	21389.267578	147.419785
608.818298	1231.606079	14840.288086	21118.089844	146.130859
609.157593	1260.983765	15030.113281	21716.943359	148.563919
609.496887	1251.944458	15186.041992	21597.171875	146.010361
609.836182	1163.811279	15495.637695	21626.550781	142.778320
610.175415	1190.929199	15552.133789	21628.810547	142.313126
610.514526	1328.778687	15567.952148	21364.410156	140.707825
610.853699	1206.747925	15427.842773	21443.503906	142.300964
611.192688	1186.409546	15238.017578	20996.058594	140.977798
611.531799	1132.173584	15073.049805	20921.484375	141.951706
611.870850	1195.448853	14851.586914	20593.808594	142.048645
612.209778	1227.086426	14304.708984	20270.654297	145.619492
612.548645	1229.346191	14130.702148	20279.693359	147.661591
612.887573	1233.865845	13945.396484	19775.751953	145.866669
613.226440	1281.322266	13529.587891	19244.691406	146.660507
613.565186	1231.606079	13348.801758	19330.564453	149.365906
613.903931	1267.763306	13253.888672	19091.023438	148.699097
614.242676	1175.110352	13075.362305	19194.976563	151.424255
614.581360	1297.140991	13027.906250	18822.103516	149.393173
614.919983	1179.630005	12786.104492	18691.035156	150.876175
615.258484	1276.802612	12754.466797	18559.964844	150.580826
615.597046	1213.527466	12612.097656	18471.830078	151.407608
615.935547	1233.865845	12447.130859	18313.642578	152.317612
616.273987	1152.512085	12548.822266	18252.626953	150.049576
616.612366	1340.077759	12616.617188	17990.488281	147.655319
616.950806	1222.566772	12756.726563	18130.597656	146.590912
617.289124	1303.920532	12449.390625	17983.708984	149.655319
617.627380	1254.204346	12607.578125	17936.251953	146.934708
617.965515	1274.542725	12720.569336	17879.755859	145.074036
618.303772	1283.582031	12600.798828	17653.773438	144.648560
618.641968	1242.905151	12420.012695	17705.750000	147.290756
618.980042	1184.149658	12478.768555	17590.498047	145.258087
619.318054	1231.606079	12623.397461	17585.978516	143.562775
619.656128	1199.968506	12575.940430	17235.705078	140.961472
619.994080	1199.968506	12422.272461	17303.500000	143.495773
620.331970	1251.944458	12451.650391	17124.974609	141.727203
620.669861	1310.700073	12187.250000	17407.451172	147.995010
621.007751	1242.905151	12356.737305	16930.628906	141.154953
621.345581	1233.865845	12304.761719	16880.912109	141.334961
621.683289	1281.322266	12266.344727	16779.220703	141.082077
622.020996	1204.488159	11979.345703	17023.281250	146.812088
622.358704	1206.747925	12164.652344	16668.488281	141.101257
622.696350	1260.983765	12040.361328	16431.207031	140.733765
623.033875	1294.881226	12114.935547	16336.293945	139.014206
623.371460	1202.228271	11927.370117	16259.459961	140.391907
623.708984	1263.243652	12081.038086	16433.466797	140.233963
624.046448	1220.306885	12133.014648	16345.333008	138.600113
624.383789	1184.149658	11965.787109	16074.154297	138.105225
624.721191	1240.645386	11999.684570	16329.514648	140.243652
625.058533	1152.512085	12153.352539	16117.090820	136.031235
625.395813	1150.252197	12133.014648	16112.571289	136.234573
625.733032	1254.204346	12297.981445	16198.444336	135.318192
626.070190	1229.346191	12401.933594	16338.553711	135.234619
626.407410	1403.352905	12505.885742	16232.341797	133.564011
626.744507	1324.259033	12598.539063	16169.066406	131.669662
627.081543	1247.424805	12851.639648	16234.601563	129.152878
627.418518	1175.110352	12964.630859	16718.205078	131.838226
627.755554	1195.448853	13021.126953	16250.419922	127.307465
628.092529	1285.841919	13068.583008	16485.443359	128.998856
628.429382	1195.448853	12928.473633	16268.499023	128.466873
628.766174	1378.494873	12772.545898	16076.414063	128.996429
629.103027	1290.361572	12679.892578	15909.186523	128.353180
629.439819	1229.346191	12413.233398	15504.677734	127.641960
629.776489	1346.857300	12277.643555	15613.149414	130.514786
630.113159	1199.968506	12160.132813	14980.397461	125.731956
630.449829	1321.999146	12180.470703	15118.247070	127.055153
630.786377	1209.007813	11687.828125	14971.358398	131.334930
631.122925	1396.573486	12022.283203	15079.830078	128.774994
631.459412	1333.298340	11552.238281	14813.169922	131.910660
631.795898	1202.228271	11543.199219	14250.472656	126.180069
632.132324	1249.684692	11385.011719	14386.062500	129.609802
632.468689	1315.219727	11339.815430	14119.403320	127.727684
632.804993	1211.267578	11125.130859	14074.206055	129.746979
633.141296	1215.787231	11186.146484	13947.656250	127.697197
633.477539	1265.503418	10890.109375	13861.782227	130.875793
633.813721	1247.424805	10944.344727	13972.513672	131.228149
634.149841	1245.165039	10957.904297	13793.987305	129.199615
634.485962	1274.542725	11113.832031	13832.405273	127.629776
634.822083	1283.582031	11104.792969	13619.981445	125.609756
635.158020	1306.180420	11149.989258	13493.430664	123.806244
635.494019	1220.306885	11048.296875	13457.273438	124.511383
635.829956	1281.322266	10754.519531	13095.701172	124.713745
636.165894	1143.472778	10840.392578	13177.054688	124.096954
636.501709	1190.929199	11091.234375	13156.716797	120.862816
636.837463	1134.433472	10562.434570	12865.198242	124.424728
637.173279	1211.267578	10286.735352	12761.246094	127.265930
637.509033	1251.944458	10386.167969	12584.980469	124.072243
637.844666	1152.512085	10212.161133	12444.871094	124.644554
638.180237	1229.346191	10162.444336	12345.438477	124.437149
638.515869	1213.527466	9959.060547	12191.769531	125.529709
638.851440	1197.708618	10031.375000	12105.896484	123.484268
639.186890	1270.023071	10013.295898	11981.606445	122.512283
639.522339	1224.826538	9599.748047	12033.582031	129.060974
639.857727	1220.306885	9724.038086	11918.331055	125.803886
640.193176	1326.518799	9760.195313	11794.040039	124.115753
640.528442	1240.645386	9608.787109	11529.640625	122.954361
640.863708	1175.110352	9608.787109	11529.640625	122.775993
641.198914	1184.149658	9310.490234	11199.706055	123.248047
641.534180	1229.346191	9432.520508	11412.129883	124.132240
641.869263	1229.346191	9276.592773	11201.965820	123.925858
642.204346	1179.630005	9168.121094	11088.973633	124.045250
642.539368	1224.826538	9192.978516	10899.148438	121.412376
642.874390	1199.968506	9165.860352	11107.052734	124.368805
643.209412	1195.448853	9192.978516	10998.581055	122.576996
643.544312	1276.802612	9077.727539	10964.683594	124.188873
643.879150	1297.140991	9278.852539	10781.637695	118.827866
644.213989	1288.101685	9018.971680	10505.938477	119.234146
644.548828	1319.739380	9109.365234	10641.528320	119.669273
644.883545	1213.527466	9059.648438	10562.434570	119.153236
645.218262	1233.865845	8876.602539	10417.805664	120.165588
645.552856	1238.385498	8817.847656	10442.663086	121.437080
645.887573	1251.944458	8971.515625	10390.687500	118.384079
646.222107	1263.243652	9005.413086	10370.348633	117.629890
646.556580	1138.953125	9147.782227	10209.901367	113.261856
646.891113	1190.929199	9028.011719	10126.287109	114.013824
647.225586	1260.983765	8960.216797	10153.405273	115.497505
647.559937	1222.566772	9147.782227	10259.617188	114.029091
647.894226	1163.811279	9009.932617	10157.924805	114.631332
648.228577	1310.700073	9138.743164	10361.309570	115.617775
648.562927	1184.149658	9023.491211	10114.988281	113.923325
648.897095	1236.125732	8964.736328	10065.272461	114.239769
649.231262	1211.267578	8994.114258	9945.500977	112.224152
649.565430	1222.566772	8917.279297	9995.217773	114.008827
649.899475	1184.149658	8863.043945	9909.343750	113.625656
650.233521	1247.424805	9102.585938	9615.566406	106.530487
650.567505	1188.669312	8905.980469	9604.267578	109.048325
650.901428	1229.346191	8933.098633	9787.313477	111.088287
651.235413	1215.787231	8985.074219	9692.400391	109.104134
651.569275	1177.370239	8978.294922	9735.336914	109.704514
651.903015	1342.337646	9168.121094	9922.903320	109.644814
652.236816	1220.306885	8966.996094	9565.850586	107.730453
652.570618	1267.763306	8822.367188	9389.583984	107.508224
652.904297	1310.700073	9043.830078	9674.322266	108.153130
653.237915	1213.527466	8770.390625	9461.898438	109.150726
653.571533	1209.007813	8702.595703	9373.764648	108.956573
653.905090	1247.424805	8637.061523	9276.592773	108.654434
654.238586	1229.346191	8580.565430	9224.616211	108.761139
654.572021	1188.669312	8499.211914	9195.238281	109.520859
654.905457	1240.645386	8530.849609	9134.223633	108.276505
655.238892	1247.424805	8449.495117	9202.017578	110.448700
655.572144	1303.920532	8424.637695	9023.491211	108.410019
655.905457	1170.590698	8203.173828	8844.964844	109.125961
656.238708	1231.606079	8311.645508	8863.043945	107.788071
656.571960	1220.306885	8478.873047	8666.438477	102.584053
656.905090	1111.835205	8424.637695	8901.460938	106.520393
657.238159	1193.188965	8435.936523	8698.076172	103.619339
657.571289	1326.518799	8691.296875	9052.869141	104.909477
657.904358	1195.448853	8487.912109	8743.273438	103.501717
658.237305	1213.527466	8557.966797	9061.909180	106.861549
658.570190	1181.889893	8679.998047	9007.672852	104.370102
658.903076	1141.212891	8813.328125	9073.208008	103.387329
659.236023	1256.464111	9244.955078	9391.843750	101.838753
659.568787	1193.188965	9253.994141	9369.245117	101.429771
659.901428	1321.999146	9335.347656	9522.913086	102.340660
660.234192	1209.007813	9394.103516	9269.812500	98.481499
660.566895	1227.086426	9428.000977	9256.253906	97.905762
660.899536	1328.778687	9362.465820	9380.543945	100.225029
661.232056	1249.684692	9382.804688	9152.301758	97.165871
661.564636	1229.346191	9138.743164	9034.791016	98.685715
661.897156	1195.448853	8994.114258	8966.996094	99.652275
662.229553	1288.101685	8835.925781	8831.406250	99.940125
662.561951	1297.140991	8750.052734	8670.958984	98.938751
662.894287	1353.636719	8815.587891	8614.462891	97.304657
663.226685	1186.409546	8336.503906	8456.275391	101.675102
663.558899	1283.582031	8280.008789	8320.685547	100.581390
663.891052	1263.243652	7952.333496	7941.034180	99.831078
664.223328	1231.606079	8313.906250	8198.654297	98.372673
664.555420	1233.865845	7898.097656	7997.529785	101.492027
664.887512	1209.007813	7798.665039	7812.224121	100.205765
665.219543	1254.204346	7943.293945	7798.665039	97.837837
665.551575	1270.023071	7839.341797	7748.948730	98.624008
665.883545	1190.929199	7796.405273	7563.643066	96.476227
666.215454	1204.488159	7504.887695	7624.658203	101.901001
666.547302	1136.693237	7441.612305	7681.154297	103.799286
666.879150	1249.684692	7787.365723	7552.343750	96.405121
667.210938	1267.763306	7721.831055	7694.712891	99.579826
667.542664	1247.424805	7735.390137	7588.500977	97.735977
667.874268	1281.322266	7565.902832	7518.446289	99.244873
668.205994	1265.503418	7647.256836	7676.634277	100.460335
668.537537	1265.503418	7748.948730	7543.304688	96.828171
668.869080	1263.243652	7647.256836	7452.911621	96.955750
669.200562	1247.424805	7554.603516	7482.289063	98.853455
669.532043	1211.267578	7586.241211	7556.863770	99.539177
669.863525	1238.385498	7536.524902	7633.697754	101.542885
670.194824	1202.228271	7586.241211	7371.557617	96.637169
670.526184	1213.527466	7746.688965	7333.140625	93.670013
670.857483	1209.007813	7532.005371	7267.605469	95.818443
671.188660	1270.023071	7674.374512	7258.566406	93.507416
671.519897	1270.023071	7419.014160	7102.638184	94.854828
671.851013	1281.322266	7441.612305	7134.275879	95.011009
672.182129	1256.464111	7394.155762	7138.795410	95.839470
672.513184	1175.110352	7217.889160	7052.921875	97.270012
672.844238	1367.195679	7552.343750	7093.599121	92.583122
673.175171	1218.047119	7491.328613	6887.954590	90.381844
673.506104	1290.361572	7495.848145	7055.181641	92.898766
673.836975	1333.298340	7319.581543	7055.181641	95.583237
674.167786	1147.992432	7177.212402	6910.552734	95.577217
674.498596	1199.968506	7208.850098	6915.072266	95.110931
674.829407	1163.811279	7211.109863	6756.884766	92.488785
675.160034	1247.424805	7215.629395	6829.199219	93.525185
675.490723	1215.787231	7134.275879	6729.766602	93.165329
675.821289	1125.394165	6994.166504	6684.570313	94.724686
676.151917	1274.542725	6926.371582	6596.437012	94.162338
676.482422	1288.101685	6858.576660	6693.609375	97.038544
676.812927	1157.031738	7041.623047	6530.901855	91.321045
677.143311	1301.660645	7098.118652	6741.065918	93.840157
677.473694	1231.606079	7132.016113	6481.185547	88.969742
677.804016	1116.354858	6899.253906	6607.735840	94.958961
678.134338	1190.929199	6985.126953	6510.563477	91.809677
678.464539	1288.101685	6881.175293	6578.358398	94.585861
678.794800	1249.684692	7071.000488	6542.201172	90.916153
679.124878	1267.763306	7193.031250	6784.002441	93.096870
679.455078	1166.071045	7186.251953	6729.766602	92.417412
679.785095	1242.905151	7292.463867	6750.104980	91.034737
680.115173	1206.747925	7188.511719	6639.373535	90.819794
680.445129	1224.826538	7387.376465	6890.214355	91.932526
680.775024	1292.621338	7473.250000	6808.860840	89.250450
681.104919	1256.464111	7532.005371	6743.325684	87.432480
681.434814	1195.448853	7409.974609	6743.325684	89.272728
681.764526	1206.747925	7624.658203	6750.104980	86.373238
682.094360	1181.889893	7721.831055	6863.096680	86.869385
682.424011	1369.455566	7611.099609	6892.474121	88.486603
682.753723	1251.944458	7518.446289	6777.223145	88.171661
683.083313	1229.346191	7448.391602	6761.404297	88.953491
683.412903	1179.630005	7486.809082	6605.476074	86.026512
683.742432	1186.409546	7256.306641	6591.916992	89.054352
684.071899	1358.156372	7398.675781	6607.735840	86.906097
684.401306	1188.669312	7245.007324	6535.421387	88.283577
684.730713	1213.527466	7003.205566	6325.257324	88.290398
685.060059	1177.370239	7143.314941	6393.052246	87.424240
685.389404	1190.929199	6811.120605	6284.580566	90.631279
685.718628	1260.983765	6817.899902	6058.597656	86.335907
686.047852	1229.346191	6881.175293	6142.211426	86.925224
686.376953	1238.385498	6973.828125	6210.006348	86.682434
686.706116	1249.684692	6619.035156	6139.951660	91.077438
687.035156	1270.023071	6808.860840	6013.401367	85.638512
687.364197	1303.920532	6948.969727	6085.715820	84.707771
687.693176	1249.684692	6750.104980	6119.613281	88.537392
688.022156	1272.282959	6777.223145	5936.567383	84.729057
688.351013	1190.929199	6824.679199	6076.676270	86.722824
688.679871	1220.306885	6686.830078	6029.220215	87.970230
689.008606	1157.031738	6722.987305	6099.274902	88.794151
689.337402	1242.905151	6612.255371	5947.866211	87.626266
689.666138	1202.228271	6716.207520	5961.425293	86.311478
689.994751	1188.669312	6551.240234	5857.473145	87.062790
690.323364	1229.346191	6551.240234	5821.315918	86.284500
690.651917	1213.527466	6257.462891	5672.167480	88.396057
690.980469	1310.700073	6354.635254	5810.016602	89.202507
691.308960	1290.361572	6433.729004	5611.151855	84.007027
691.637451	1242.905151	6128.652344	5606.632324	89.315453
691.965759	1290.361572	6101.534668	5550.136719	88.539230
692.294128	1195.448853	6198.707031	5491.380859	85.862686
692.622437	1224.826538	6103.794434	5371.610352	84.993057
692.950684	1326.518799	6047.298828	5337.712891	84.968880
693.278870	1324.259033	6056.337891	5373.870117	85.577843
693.607117	1222.566772	5907.189453	5202.123047	84.949341
693.935120	1236.125732	5791.937988	5213.422363	87.301590
694.263245	1254.204346	5803.237305	5145.627441	85.543961
694.591248	1283.582031	5828.095215	5263.138672	87.568382
694.919250	1256.464111	5776.119141	5075.572754	84.500000
695.247192	1209.007813	5857.473145	5025.856445	82.109863
695.575073	1319.739380	5814.536621	5186.304199	86.023117
695.902893	1240.645386	5715.104004	5150.146973	87.373734
696.230774	1231.606079	5771.599609	5086.872070	84.917877
696.558411	1254.204346	5821.315918	5077.832520	83.720932
696.886169	1209.007813	5742.222168	5055.234375	84.845459
697.213806	1175.110352	5816.796387	5202.123047	86.757538
697.541443	1265.503418	6008.881836	5251.839355	84.040016
697.869019	1123.134277	5929.787598	5303.815430	86.976967
698.196533	1224.826538	6363.674805	5491.380859	83.025497
698.524048	1247.424805	6499.264160	5647.309082	83.777969
698.851501	1331.038452	6521.862305	5728.663086	84.719200
699.178772	1249.684692	6761.404297	5812.276855	82.779831
699.506226	1251.944458	6869.875977	5771.599609	80.450523
699.833435	1337.817993	6890.214355	6103.794434	85.836388
700.160767	1213.527466	6964.788574	5954.645996	82.436157
700.487915	1152.512085	6924.111816	5932.047363	82.811272
700.815063	1190.929199	6605.476074	5819.056152	85.475792
701.142151	1147.992432	6569.318848	5717.363770	84.285118
701.469238	1209.007813	6478.925781	5552.396484	82.418526
701.796265	1242.905151	6417.910645	5532.058105	82.882095
702.123230	1315.219727	6212.266113	5351.271973	82.418091
702.450134	1233.865845	5965.944824	5184.044434	83.476601
702.777039	1310.700073	5889.110840	5195.343750	84.846985
703.103882	1251.944458	5755.780762	5062.013672	84.596085
703.430664	1272.282959	5678.946777	5016.817383	84.974358
703.757385	1215.787231	5561.435547	4802.133789	82.527306
704.084106	1204.488159	5272.177734	4637.166504	84.388893
704.410767	1125.394165	5195.343750	4657.504883	86.785126
704.737366	1152.512085	5100.431152	4564.851563	86.433876
705.063904	1385.274292	5513.979492	4634.906250	78.708260
705.390442	1256.464111	5089.131836	4472.198730	83.903297
705.716919	1199.968506	5233.760742	4702.701172	86.834732
706.043396	1247.424805	5226.981445	4549.033203	82.964226
706.369690	1249.684692	5193.083984	4472.198730	81.719193
706.696106	1308.440186	5163.706055	4555.812500	84.232124
707.022278	1292.621338	5095.911133	4420.222656	82.234108
707.348633	1215.787231	5041.675293	4298.191895	80.567039
707.674805	1251.944458	5055.234375	4429.262207	83.541298
708.000916	1184.149658	5143.367676	4440.561035	82.248856
708.327026	1249.684692	5016.817383	4436.041504	84.583076
708.653076	1224.826538	5145.627441	4350.167969	79.711807
708.979065	1229.346191	5136.588379	4438.301270	82.128387
709.305054	1224.826538	5068.793457	4386.325195	82.245728
709.630920	1247.424805	5202.123047	4497.057129	82.171432
709.956787	1132.173584	5123.029297	4320.790527	79.898079
710.282593	1199.968506	5371.610352	4621.347656	82.015175
710.608459	1170.590698	5265.398438	4478.978516	80.794701
710.934082	1193.188965	5380.649414	4492.537109	78.791145
711.259827	1233.865845	5254.099121	4580.670410	83.249016
711.585449	1143.472778	5382.909180	4646.205566	82.622604
711.911072	1202.228271	5534.317871	4639.426270	79.342720
712.236572	1179.630005	5367.090820	4625.867188	82.298973
712.562073	1181.889893	5459.743652	4580.670410	79.450607
712.887512	1215.787231	5387.429199	4632.646484	81.906822
713.213013	1224.826538	5428.105957	4616.827637	80.698921
713.538330	1218.047119	5369.350586	4569.371582	80.729446
713.863647	1179.630005	5217.941895	4605.528809	84.834923
714.188904	1202.228271	5204.382813	4607.788574	85.093170
714.514099	1211.267578	5240.540039	4512.875977	81.940559
714.839294	1249.684692	5231.500977	4488.017578	81.328033
715.164490	1301.660645	5238.280273	4431.521973	79.506317
715.489502	1303.920532	5066.533691	4549.033203	86.246246
715.814575	1242.905151	5233.760742	4379.545898	78.595695
716.139526	1308.440186	5403.248047	4433.781738	76.324501
716.464539	1233.865845	5127.548828	4417.962891	81.775970
716.789368	1188.669312	4982.919922	4431.521973	85.467537
717.114258	1292.621338	5068.793457	4316.270508	80.071808
717.439026	1202.228271	5034.895996	4350.167969	82.134430
717.763794	1168.330933	4962.581543	4343.388672	83.680756
718.088440	1150.252197	4924.164551	4153.562988	79.580833
718.413208	1209.007813	4860.889160	4239.436523	82.982674
718.737793	1256.464111	4928.684082	4117.405762	77.907684
719.062378	1290.361572	4878.967773	4076.729004	77.644836
719.386841	1209.007813	4718.520020	4078.988770	81.777206
719.711304	1188.669312	4646.205566	3911.761719	78.758171
720.035767	1204.488159	4621.347656	3862.045410	77.777771
720.360168	1249.684692	4533.214355	3979.556396	83.138321
720.684570	1195.448853	4571.631348	3789.730957	76.840698
721.008789	1321.999146	4571.631348	3900.462402	79.346313
721.333069	1335.558105	4417.962891	3927.580322	84.090912
721.657227	1195.448853	4393.104980	3773.912109	80.636040
721.981445	1270.023071	4304.971680	3706.117188	80.268051
722.305481	1251.944458	4377.286133	3742.274414	79.681847
722.629578	1227.086426	4280.113281	3762.613037	83.049599
722.953552	1242.905151	4375.026367	3724.195801	79.220772
723.277588	1306.180420	4284.633301	3816.848877	84.294380
723.601440	1204.488159	4316.270508	3633.802734	78.068268
723.925354	1294.881226	4266.554688	3669.959961	79.923950
724.249146	1283.582031	4356.947754	3604.425049	75.514702
724.572937	1312.959839	4239.436523	3737.754883	82.857147
724.896667	1238.385498	4232.657227	3692.558350	81.962265
725.220398	1247.424805	4232.657227	3708.377197	82.437546
725.543945	1256.464111	4262.034668	3678.999268	80.601509
725.867615	1227.086426	4164.862305	3647.361816	82.384613
726.191101	1233.865845	4234.916992	3719.676270	82.831329
726.514648	1319.739380	4212.318848	3785.211182	85.234360
726.838074	1224.826538	4323.050293	3688.038574	79.504005
727.161499	1240.645386	4295.932129	3728.715576	81.434921
727.484863	1245.165039	4395.364746	3758.093262	79.770439
727.808228	1267.763306	4429.262207	3767.132568	79.056458
728.131470	1163.811279	4370.506836	3778.431885	81.536293
728.454712	1245.165039	4384.065430	3819.108643	82.001442
728.777832	1258.723999	4361.467285	3810.069336	82.228699
729.101013	1190.929199	4406.664063	3814.589111	81.588188
729.424011	1270.023071	4515.135742	3841.707031	79.247910
729.747070	1258.723999	4549.033203	3864.305176	79.189552
730.070068	1240.645386	4485.757813	3911.761719	82.311981
730.393005	1263.243652	4512.875977	3746.794189	76.425583
730.715881	1179.630005	4356.947754	3676.739502	78.591736
731.038757	1222.566772	4363.727051	3730.975342	79.856125
731.361572	1159.291626	4402.144043	3848.486328	82.926834
731.684326	1199.968506	4440.561035	3703.857422	77.266388
732.007019	1254.204346	4553.552734	3717.416504	74.657532
732.329712	1333.298340	4440.561035	3787.471191	78.981827
732.652283	1231.606079	4573.891113	3715.156494	74.306953
732.974854	1254.204346	4524.174805	3841.707031	79.129234
733.297363	1218.047119	4560.332031	3787.471191	76.876274
733.619873	1193.188965	4639.426270	3760.353027	74.491798
733.942261	1249.684692	4469.938965	3773.912109	78.385963
734.264648	1249.684692	4503.836426	3839.447021	79.583321
734.586975	1211.267578	4271.074219	3590.865967	77.769569
734.909302	1227.086426	4304.971680	3735.495117	81.497795
735.231506	1211.267578	4327.569824	3651.881348	78.317619
735.553711	1186.409546	4234.916992	3617.984131	79.762794
735.875854	1270.023071	4433.781738	3622.503662	74.357140
736.197937	1157.031738	4119.665527	3462.055908	77.803207
736.519958	1152.512085	4108.366699	3516.291748	79.969421
736.841980	1179.630005	4103.847168	3493.693604	79.134460
737.163940	1229.346191	4092.547852	3308.387695	72.612473
737.485840	1206.747925	4072.209473	3471.095215	79.022079
737.807678	1218.047119	4051.870850	3344.544922	75.039879
738.129517	1172.850586	3936.619629	3333.245850	78.168442
738.451233	1288.101685	4072.209473	3473.354980	78.490257
738.773010	1213.527466	4176.161621	3380.702148	73.150261
739.094666	1249.684692	4142.264160	3475.614990	76.953117
739.416260	1301.660645	4112.886230	3523.071289	79.019295
739.737854	1256.464111	4219.098145	3480.134521	75.057205
740.059448	1229.346191	4085.768311	3475.614990	78.639244
740.380859	1175.110352	4042.831543	3398.780762	77.541374
740.702332	1166.071045	4063.170166	3414.599609	77.613106
741.023682	1245.165039	4146.783691	3434.937988	75.467293
741.345032	1249.684692	4047.351318	3389.741455	76.494347
741.666321	1260.983765	4047.351318	3398.780762	76.723434
741.987549	1206.747925	4065.429932	3367.143066	75.573112
742.308777	1175.110352	3929.840332	3382.961914	80.147659
742.629944	1229.346191	3918.541016	3242.852539	74.873947
742.950989	1349.117065	3850.746338	3358.103760	80.307129
743.272095	1265.503418	3728.715576	3114.042480	75.045876
743.593140	1292.621338	3735.495117	3145.679932	75.855682
743.914063	1179.630005	3710.636963	3256.411621	82.053581
744.234985	1179.630005	3685.778809	3186.356934	80.072136
744.555847	1209.007813	3631.542969	3091.444092	77.705223
744.876648	1247.424805	3536.630127	3197.656006	85.192497
745.197449	1193.188965	3545.669434	3156.979248	83.477432
745.518188	1263.243652	3620.243896	3147.939941	79.961647
745.838867	1163.811279	3667.700195	3127.601318	78.429596
746.159485	1274.542725	3642.842041	3100.483398	77.099236
746.480042	1231.606079	3471.095215	3111.782715	83.955597
746.800537	1224.826538	3534.370361	3039.468262	78.571434
747.121094	1242.905151	3570.527588	3019.129639	76.310677
747.441528	1163.811279	3498.213135	2901.618652	74.443367
747.761902	1188.669312	3477.874756	3005.570801	79.368210
748.082275	1204.488159	3545.669434	3001.051025	76.737457
748.402588	1324.259033	3602.165283	3111.782715	78.472221
748.722839	1288.101685	3514.031982	2951.334961	74.720818
749.043030	1231.606079	3416.859375	3030.428711	82.316429
749.363159	1204.488159	3382.961914	2953.594727	80.290466
749.683289	1231.606079	3491.433594	3014.610107	78.900002
750.003357	1163.811279	3563.748047	3055.286865	78.813560
750.323303	1209.007813	3385.221680	2940.035645	79.543091
750.643311	1265.503418	3647.361816	3082.404785	76.280830
750.963257	1396.573486	3749.053955	3134.380859	73.871277
751.283142	1292.621338	3545.669434	3041.728027	77.632904
751.602905	1270.023071	3439.457520	2949.074951	77.395828
751.922729	1288.101685	3593.125977	2982.972412	73.529404
752.242432	1283.582031	3486.914063	2892.579346	73.025642
752.562134	1272.282959	3362.623535	2908.398193	78.270271
752.881714	1267.763306	3387.481689	2908.398193	77.398727
753.201355	1270.023071	3428.158447	2940.035645	77.382202
753.520874	1204.488159	3272.230469	2906.138428	82.295090
753.840393	1267.763306	3351.324463	2917.437500	79.175705
754.159851	1272.282959	3385.221680	2926.476807	78.288773
754.479248	1242.905151	3360.363770	2860.941650	76.414085
754.798523	1321.999146	3403.300293	2865.461426	74.158524
755.117859	1310.700073	3450.756836	2842.863037	71.594505
755.437134	1267.763306	3301.608154	2894.839111	80.000000
755.756348	1319.739380	3385.221680	2874.500732	75.273521
756.075500	1292.621338	3324.206299	2849.642578	76.640717
756.394653	1290.361572	3281.269775	2894.839111	80.590233
756.713623	1236.125732	3371.662842	2818.005127	74.074074
757.032654	1283.582031	3344.544922	2847.382813	75.877190
757.351624	1263.243652	3324.206299	2763.769287	72.807030
757.670532	1218.047119	3303.867920	2788.627197	75.297935
757.989441	1175.110352	3247.372314	2707.273438	73.936745
758.308289	1193.188965	3373.922607	2937.775879	80.000000
758.627014	1220.306885	3335.505615	2786.367432	74.038460
758.945801	1245.165039	3333.245850	2854.162354	77.056274
759.264404	1256.464111	3337.765381	2736.651123	71.118347
759.583130	1337.817993	3367.143066	2910.657959	77.505569
759.901611	1303.920532	3364.883301	2793.146973	72.258774
760.220215	1274.542725	3484.654297	2781.847900	68.200409
760.538635	1303.920532	3312.907227	2869.980957	77.952751
760.857117	1197.708618	3240.592773	2815.745117	79.203537
761.175537	1342.337646	3471.095215	2967.153564	76.326958
761.493896	1242.905151	3378.442383	2897.099121	77.460327
761.812134	1263.243652	3362.623535	2946.815186	80.193756
762.130432	1337.817993	3446.237061	3021.389404	79.849945
762.448608	1213.527466	3392.001221	2892.579346	77.074692
762.766785	1360.416260	3459.796143	2921.957031	74.381050
763.084900	1378.494873	3588.606201	3080.145020	76.993866
763.402954	1213.527466	3579.566895	3046.247559	77.459404
763.720947	1222.566772	3694.818115	3095.963867	75.776962
764.038940	1147.992432	4069.949463	3346.804688	75.251358
764.356750	1288.101685	4207.798828	3398.780762	72.291031
764.674683	1195.448853	4140.004395	3509.512207	78.587868
764.992493	1175.110352	4271.074219	3525.331055	75.912407
765.310303	1227.086426	4386.325195	3584.086670	74.606590
765.627930	1168.330933	4225.877441	3446.237061	74.501122
765.945679	1267.763306	4271.074219	3502.732910	74.416855
766.263306	1240.645386	4045.091309	3371.662842	75.987122
766.580872	1193.188965	4015.713623	3260.931152	73.258606
766.898376	1202.228271	3773.912109	3138.900635	75.307564
767.215881	1236.125732	3636.062744	2992.011719	73.163834
767.533325	1199.968506	3532.110596	2942.295654	74.709305
767.850708	1168.330933	3414.599609	2915.177734	77.766602
768.168030	1197.708618	3396.520996	2926.476807	78.622810
768.485352	1199.968506	3272.230469	2763.769287	75.463470
768.802551	1227.086426	3285.789307	2698.234131	71.459930
769.119751	1242.905151	3177.317627	2768.288818	78.855141
769.436890	1290.361572	3120.822021	2657.557373	74.691360
769.753967	1260.983765	3267.710693	2592.022217	66.328827
770.071045	1211.267578	3143.420166	2641.738525	74.035095
770.388062	1281.322266	3100.483398	2752.469971	80.869568
770.704956	1220.306885	3073.365479	2592.022217	74.024391
771.021912	1306.180420	3043.987793	2675.635986	78.803642
771.338684	1218.047119	2964.893799	2483.550537	72.445023
771.655579	1159.291626	2953.594727	2587.502686	79.596977
771.972351	1294.881226	3039.468262	2666.596680	78.626945
772.289063	1238.385498	2942.295654	2546.825684	76.790443
772.605713	1206.747925	2942.295654	2603.321289	80.468735
772.922302	1172.850586	2908.398193	2503.888916	76.692703
773.238831	1267.763306	2906.138428	2528.747070	76.965508
773.555420	1308.440186	3039.468262	2659.817139	78.067879
773.871826	1202.228271	2933.256348	2508.408691	75.456917
774.188293	1263.243652	2928.736572	2542.306152	76.797836
774.504639	1245.165039	2935.516113	2589.762451	79.545456
774.820984	1233.865845	2879.020264	2469.991699	75.137375
775.137207	1211.267578	2946.815186	2564.904297	77.994789
775.453552	1152.512085	2876.760498	2402.196777	72.477066
775.769592	1299.400879	2827.044434	2481.290771	77.366859
776.085815	1224.826538	2822.524658	2476.770996	78.359261
776.401855	1136.693237	2874.500732	2438.354004	74.902473
776.717896	1249.684692	2829.304199	2481.290771	77.968529
777.033875	1281.322266	2804.446045	2454.172852	77.002975
777.349854	1215.787231	2797.666504	2415.755615	75.857140
777.665710	1211.267578	2836.083740	2323.102783	68.428368
777.981567	1321.999146	2851.902344	2458.692383	74.298378
778.297363	1236.125732	2684.675293	2379.598389	78.939148
778.613098	1166.071045	2747.950439	2422.535156	79.428566
778.928772	1240.645386	2747.950439	2305.024170	70.614693
779.244385	1242.905151	2799.926514	2415.755615	75.326546
779.559998	1281.322266	2705.013672	2363.779785	76.031754
779.875488	1188.669312	2759.249512	2368.299316	75.107910
780.191040	1290.361572	2822.524658	2402.196777	72.566376
780.506470	1177.370239	2743.430664	2336.661865	74.025986
780.821899	1206.747925	2786.367432	2449.653076	78.683830
781.137207	1213.527466	2723.092285	2393.157471	78.143715
781.452576	1213.527466	2725.352051	2332.142090	73.991035
781.767822	1272.282959	2775.068359	2381.858398	73.834587
782.083069	1240.645386	2759.249512	2343.441162	72.619041
782.398193	1184.149658	2641.738525	2271.126709	74.573639
782.713379	1301.660645	2705.013672	2300.504395	71.175514
783.028381	1283.582031	2745.690430	2309.543701	70.170013
783.343384	1213.527466	2585.242676	2268.866943	76.935760
783.658386	1283.582031	2693.714600	2352.480469	75.801270
783.973328	1267.763306	2655.297363	2262.087402	71.661240
784.288086	1430.470825	2763.769287	2395.417236	72.372871
784.602966	1283.582031	2540.046143	2268.866943	78.417274
784.917725	1324.259033	2616.880371	2228.189941	69.930061
785.232483	1272.282959	2619.140137	2257.567871	73.154373
785.547119	1263.243652	2596.541992	2338.921631	80.677963
785.861755	1233.865845	2488.070313	2314.063477	86.126122
786.176270	1190.929199	2535.526611	2223.670410	76.806725
786.490845	1195.448853	2533.266846	2264.347168	79.898636
786.805298	1193.188965	2558.124756	2158.135254	70.695358
787.119751	1265.503418	2567.164063	2250.788330	75.694450
787.434143	1218.047119	2517.447998	2225.930176	77.565216
787.748474	1209.007813	2564.904297	2316.323242	81.666664
788.062744	1245.165039	2598.801758	2223.670410	72.287148
788.377014	1265.503418	2614.620605	2230.449951	71.524292
788.691162	1193.188965	2628.179443	2266.607178	74.803162
789.005310	1166.071045	2585.242676	2377.338623	85.350327
789.319397	1229.346191	2646.258057	2320.843018	77.033501
789.633423	1152.512085	2693.714600	2343.441162	77.272720
789.947449	1224.826538	2720.832520	2402.196777	78.700905
790.261414	1227.086426	2639.478760	2329.882324	78.079994
790.575256	1213.527466	2546.825684	2345.701172	84.915268
790.889160	1190.929199	2637.218750	2320.843018	78.125008
791.202881	1211.267578	2569.424072	2262.087402	77.371040
791.516663	1175.110352	2542.306152	2262.087402	79.504128
791.830322	1256.464111	2528.747070	2250.788330	78.152756
792.144043	1224.826538	2492.589844	2151.355957	73.083786
792.457581	1260.983765	2576.203369	2266.607178	76.460495
792.771118	1245.165039	2429.314697	2097.120117	71.946571
793.084656	1324.259033	2549.085449	2277.906250	77.859787
793.398071	1251.944458	2544.565918	2214.631104	74.475525
793.711487	1184.149658	2257.567871	2128.757568	87.999992
794.024841	1213.527466	2372.819092	2090.340576	75.633522
794.338135	1254.204346	2454.172852	2182.993408	77.401123
794.651428	1256.464111	2375.078857	2124.238037	77.575760
794.964600	1285.841919	2492.589844	2223.670410	77.715363
795.277771	1224.826538	2418.015625	2140.056641	76.704529
795.590881	1315.219727	2300.504395	2210.111328	90.825691
795.903931	1428.211060	2531.006836	2241.749023	73.770500
796.216980	1193.188965	2442.873535	2137.796875	75.587708
796.529907	1326.518799	2528.747070	2232.709717	75.375946
796.842834	1175.110352	2465.471924	2135.537109	74.430824
797.155701	1260.983765	2413.495850	2149.095947	77.058815
797.468506	1231.606079	2524.227539	2140.056641	70.279709
797.781250	1321.999146	2519.707764	2225.930176	75.471695
798.093994	1181.889893	2472.251465	2094.860107	70.753052
798.406677	1154.771851	2404.456543	2149.095947	79.565994
798.719238	1202.228271	2454.172852	2088.080811	70.758125
799.031921	1222.566772	2413.495850	2054.183350	69.829231
799.344360	1209.007813	2492.589844	2063.222656	66.549301
799.656860	1236.125732	2393.157471	2072.261963	72.265625
799.969299	1204.488159	2454.172852	2020.285889	65.280289
800.281677	1184.149658	2433.834229	2081.301270	71.790245
800.593933	1209.007813	2370.559082	2027.065430	70.428024
800.906250	1150.252197	2275.646484	1995.427734	75.100395
801.218445	1168.330933	2248.528564	2018.026001	78.661072
801.530640	1195.448853	2314.063477	2004.467041	72.323227
801.842712	1222.566772	2320.843018	2036.104736	74.074074
802.154846	1209.007813	2325.362549	2056.443115	75.910934
802.466797	1220.306885	2219.150635	2090.340576	87.104080
802.778870	1297.140991	2302.764404	2063.222656	76.179779
803.090759	1294.881226	2257.567871	1923.113281	65.258209
803.402649	1247.424805	2155.875488	2103.899414	94.278603
803.714478	1231.606079	2239.489258	1905.034668	66.816132
804.026245	1224.826538	2239.489258	2042.884155	80.623604
804.337952	1179.630005	2189.772949	2031.585083	84.340050
804.649658	1193.188965	2255.307861	2115.198730	86.808525
804.961243	1197.708618	2237.229248	2060.962891	83.043495
805.272888	1276.802612	2225.930176	2049.663574	81.428566
805.584412	1242.905151	2280.166016	2051.923584	77.995659
805.895874	1181.889893	2282.425781	2024.805542	76.591385
806.207336	1231.606079	2153.615723	1997.687622	83.088234
806.518677	1197.708618	2198.812256	1975.089355	77.652374
806.830017	1186.409546	2244.008789	1979.609009	75.000000
807.141357	1206.747925	2289.205322	1979.609009	71.398750
807.452576	1238.385498	2289.205322	1984.128662	70.967751
807.763733	1285.841919	2388.637695	1997.687622	64.549187
808.074890	1105.055664	2162.655029	2033.844849	87.820511
808.385925	1337.817993	2352.480469	2124.238037	77.505577
808.697021	1247.424805	2253.048096	2058.702881	80.674156
809.007935	1333.298340	2332.142090	2056.443115	72.398186
809.318909	1349.117065	2347.960938	2015.766235	66.742081
809.629822	1260.983765	2133.277344	1914.073975	74.870461
809.940674	1168.330933	2162.655029	1875.656860	71.136353
810.251404	1197.708618	2146.836182	1938.932129	78.095245
810.562195	1346.857300	2201.072021	2040.624390	81.216942
810.872864	1222.566772	2155.875488	1873.397095	69.733658
811.183533	1152.512085	2099.379883	1882.436401	77.088303
811.494080	1274.542725	2115.198730	1938.932129	79.032257
811.804626	1218.047119	2085.820801	1839.499634	71.614586
812.115112	1136.693237	2110.678955	1837.239868	71.925758
812.425598	1229.346191	2045.144043	1853.058594	76.454285
812.735962	1220.306885	2004.467041	1792.043335	72.910675
813.046326	1258.723999	2038.364502	1868.877441	78.260872
813.356628	1396.573486	2099.379883	1952.491089	79.099678
813.666870	1297.140991	2101.639648	1882.436401	72.752815
813.976990	1260.983765	2101.639648	1848.538940	69.892471
814.287170	1227.086426	2119.718262	1794.303101	63.544304
814.597290	1285.841919	2081.301270	1828.200562	68.181816
814.907349	1256.464111	2018.026001	1839.499634	76.557861
815.217346	1428.211060	2140.056641	1898.255249	66.031761
815.527283	1276.802612	2063.222656	1807.862061	67.528725
815.837158	1245.165039	2051.923584	1859.838135	76.190468
816.147034	1321.999146	2176.214111	1886.956055	66.137558
816.456787	1206.747925	2090.340576	1907.294556	79.283890
816.766541	1321.999146	2112.938721	1868.877441	69.142868
817.076233	1195.448853	2187.513184	1848.538940	65.831429
817.385925	1251.944458	2133.277344	1857.578247	68.717941
817.695496	1457.588867	2289.205322	2036.104736	69.565224
818.005066	1251.944458	2135.537109	1866.617554	69.565208
818.314514	1229.346191	2176.214111	1850.798828	65.632454
818.623962	1236.125732	2158.135254	1871.137207	68.872551
818.933350	1276.802612	1997.687622	1814.641602	74.608154
819.242737	1306.180420	2210.111328	1961.530396	72.500008
819.552002	1202.228271	2076.781494	1932.152588	83.462540
819.861328	1218.047119	2146.836182	1947.971436	78.588814
820.170471	1166.071045	2203.332031	1947.971436	75.381256
820.479675	1224.826538	2225.930176	2106.159424	88.036125
820.788696	1188.669312	2329.882324	2128.757568	82.376228
821.097839	1245.165039	2411.236084	2097.120117	73.062019
821.406738	1276.802612	2589.762451	2219.150635	71.772797
821.715698	1258.723999	2589.762451	2201.072021	70.797958
822.024597	1294.881226	2808.965820	2485.810303	78.656708
822.333435	1288.101685	3484.654297	2924.217041	74.485596
822.642273	1251.944458	4180.681152	3498.213135	76.697525
822.950989	1236.125732	5267.658203	4153.562988	72.365463
823.259705	1256.464111	5902.669922	4867.668457	77.723724
823.568359	1285.841919	6650.672852	5113.989746	71.356354
823.876953	1358.156372	7159.133789	5532.058105	71.951698
824.185486	1233.865845	7190.771484	5595.333008	73.216995
824.494019	1209.007813	7016.764648	5554.656250	74.824905
824.802429	1147.992432	6336.556641	5014.557617	74.520905
825.110840	1195.448853	5590.813477	4573.891113	76.863754
825.419189	1240.645386	5215.682129	4063.170166	71.006264
825.727478	1270.023071	4732.079102	3923.060791	76.631851
826.035767	1238.385498	4402.144043	3590.865967	74.357140
826.343933	1238.385498	4250.735840	3378.442383	71.042763
826.652100	1220.306885	3979.556396	3319.686768	76.085175
826.960144	1213.527466	3776.171875	3073.365479	72.574951
827.268250	1202.228271	3724.195801	3082.404785	74.551971
827.576233	1367.195679	3920.801025	3238.333008	73.274330
827.884155	1227.086426	3893.682861	3188.616699	73.559326
828.192017	1263.243652	3880.124023	3303.867920	77.979271
828.499878	1218.047119	3938.879639	3193.136475	72.591362
828.807678	1161.551392	3871.084717	3156.979248	73.644707
829.115479	1152.512085	3925.320557	3184.097168	73.268135
829.423096	1258.723999	3697.077881	3053.027100	73.586655
829.730835	1209.007813	3407.820068	2784.107666	71.634125
830.038330	1211.267578	3267.710693	2580.723145	66.593407
830.345947	1247.424805	3100.483398	2666.596680	76.585373
830.653442	1222.566772	2854.162354	2460.952393	75.900284
830.960876	1218.047119	2741.170898	2332.142090	73.145401
831.268250	1249.684692	2632.699219	2248.528564	72.222229
831.575623	1202.228271	2499.369385	2160.395264	73.867599
831.882874	1163.811279	2420.275391	2090.340576	73.741005
832.190125	1233.865845	2399.937012	1950.231201	61.434101
832.497314	1335.558105	2298.244629	2067.742188	76.056335
832.804504	1378.494873	2250.788330	2045.144043	76.424873
833.111572	1147.992432	2117.458496	1898.255249	77.389282
833.418640	1227.086426	2187.513184	1929.892822	73.176468
833.725586	1285.841919	2377.338623	2063.222656	71.221535
834.032532	1215.787231	2451.912842	2090.340576	70.749550
834.339417	1274.542725	2639.478760	2327.622559	77.152321
834.646301	1270.023071	2729.871826	2368.299316	75.232193
834.953003	1283.582031	2910.657959	2384.118164	67.638893
835.259827	1245.165039	2917.437500	2528.747070	76.756752
835.566467	1290.361572	2894.839111	2458.692383	72.816902
835.873108	1256.464111	2935.516113	2388.637695	67.429337
836.179688	1256.464111	2750.210205	2399.937012	76.550690
836.486267	1202.228271	2718.572510	2329.882324	74.366623
836.792664	1231.606079	2512.928223	2323.102783	85.185188
837.099121	1267.763306	2488.070313	2162.655029	73.333328
837.405518	1283.582031	2515.188232	2083.561035	64.954124
837.711792	1254.204346	2368.299316	2018.026001	68.559830
838.018127	1177.370239	2198.812256	1929.892822	73.672569
838.324341	1292.621338	2162.655029	2090.340576	91.688316
838.630554	1281.322266	2067.742188	1798.822754	65.804604
838.936646	1227.086426	2006.726929	1758.145874	68.115936
839.242737	1283.582031	1997.687622	1798.822754	72.151894
839.548767	1263.243652	1984.128662	1816.901367	76.802498
839.854797	1279.062378	2049.663574	1717.468994	56.891506
840.160645	1236.125732	1932.152588	1828.200562	85.064941
840.466553	1166.071045	1977.349121	1740.067261	70.752090
840.772400	1157.031738	1846.279175	1731.027954	83.278687
841.078186	1177.370239	1966.050049	1760.405762	73.925507
841.383850	1177.370239	1902.774902	1688.091187	70.404968
841.689575	1249.684692	1929.892822	1762.665527	75.415276
841.995178	1220.306885	2002.207275	1724.248413	64.450859
842.300781	1242.905151	2002.207275	1740.067261	65.476189
842.606262	1294.881226	1968.309814	1701.650146	60.402679
842.911743	1279.062378	1927.632935	1749.106567	72.473869
843.217163	1242.905151	1710.689453	1674.532227	92.270531
843.522583	1247.424805	1857.578247	1597.698120	57.407413
843.827881	1240.645386	1810.121948	1608.997314	64.682541
844.133179	1263.243652	1855.318481	1701.650146	74.045792
844.438354	1265.503418	1783.004028	1647.414307	73.799118
844.743530	1218.047119	1721.988647	1613.516968	78.475342
845.048645	1279.062378	1780.744141	1636.115234	71.171188
845.353760	1227.086426	1658.713501	1505.045166	64.397896
845.658752	1283.582031	1794.303101	1690.351074	79.646027
845.963745	1294.881226	1735.547607	1613.516968	72.307701
846.268555	1202.228271	1622.556274	1502.785400	71.505379
846.573486	1184.149658	1557.021240	1532.163086	93.333321
846.878296	1353.636719	1758.145874	1690.351074	83.240234
847.183044	1206.747925	1685.831421	1475.667480	56.132084
847.487732	1229.346191	1577.359619	1482.446899	72.727280
847.792419	1290.361572	1731.027954	1498.265747	47.179497
848.097046	1249.684692	1633.855347	1477.927246	59.411762
848.401611	1240.645386	1618.036621	1523.123779	74.850281
848.706055	1202.228271	1658.713501	1434.990479	50.990086
849.010559	1218.047119	1611.257080	1471.147827	64.367828
849.314941	1229.346191	1649.674194	1602.217773	88.709671
849.619324	1199.968506	1568.320313	1468.887939	73.006142
849.923584	1188.669312	1520.864014	1507.305054	95.918373
850.227844	1197.708618	1541.202393	1514.084473	92.105263
850.532043	1163.811279	1550.241699	1471.147827	79.532181
850.836243	1220.306885	1588.658813	1486.966553	72.392632
851.140320	1249.684692	1579.619507	1446.289673	59.589039
851.444397	1247.424805	1679.051880	1502.785400	59.162319
851.748352	1256.464111	1599.958008	1489.226440	67.763161
852.052307	1283.582031	1563.800659	1477.927246	69.354851
852.356140	1242.905151	1608.997314	1423.691406	49.382717
852.660095	1260.983765	1627.075928	1493.746094	63.580254
852.963806	1308.440186	1656.453613	1473.407593	47.402599
853.267578	1507.305054	1789.783447	1810.121948	107.200020
853.571228	1256.464111	1577.359619	1520.864014	82.394394
853.874939	1209.007813	1647.414307	1471.147827	59.793827
854.178467	1227.086426	1489.226440	1459.848633	88.793083
854.482056	1231.606079	1579.619507	1498.265747	76.623383
854.785461	1254.204346	1595.438354	1514.084473	76.158920
855.088989	1245.165039	1514.084473	1473.407593	84.873955
855.392273	1229.346191	1536.682739	1434.990479	66.911758
855.695679	1229.346191	1523.123779	1493.746094	90.000023
855.998901	1367.195679	1712.949341	1649.674194	81.699356
856.302185	1222.566772	1516.344360	1416.911865	66.153816
856.605286	1290.361572	1636.115234	1557.021240	77.124176
856.908508	1211.267578	1640.634888	1493.746094	65.789482
857.211548	1215.787231	1606.737427	1493.746094	71.098282
857.514587	1220.306885	1505.045166	1468.887939	87.301590
857.817566	1143.472778	1477.927246	1448.549561	91.216240
858.120483	1229.346191	1590.918701	1498.265747	74.375000
858.423340	1294.881226	1667.752808	1552.501587	69.090904
858.726196	1179.630005	1464.368286	1453.069214	96.031769
859.028931	1236.125732	1561.540894	1477.927246	74.305550
859.331665	1170.590698	1561.540894	1421.431519	64.161835
859.634277	1211.267578	1597.698120	1425.951172	55.555546
859.936890	1188.669312	1559.281006	1502.785400	84.756119
860.239441	1263.243652	1538.942627	1457.588867	70.491814
860.541992	1231.606079	1538.942627	1489.226440	83.823532
860.844421	1218.047119	1507.305054	1502.785400	98.437500
861.146912	1186.409546	1507.305054	1471.147827	88.732399
861.449219	1166.071045	1471.147827	1407.872559	79.259232
861.751526	1299.400879	1588.658813	1545.722046	85.156235
862.053772	1344.597412	1670.012573	1496.005859	46.527779
862.355957	1358.156372	1606.737427	1484.706787	50.909115
862.658081	1218.047119	1525.383667	1563.800659	112.499977
862.960266	1197.708618	1498.265747	1529.903320	110.526306
863.262207	1195.448853	1486.966553	1432.730713	81.395355
863.564331	1285.841919	1529.903320	1486.966553	82.407394
863.866211	1206.747925	1622.556274	1428.211060	53.260868
864.168091	1195.448853	1482.446899	1462.108521	92.913406
864.469910	1256.464111	1428.211060	1337.817993	47.368458
864.771729	1260.983765	1423.691406	1439.510132	109.722176
865.073425	1242.905151	1498.265747	1473.407593	90.265472
865.375122	1159.291626	1509.564819	1412.392212	72.258049
865.676819	1195.448853	1496.005859	1360.416260	54.887226
865.978333	1166.071045	1468.887939	1364.935913	65.671654
866.279907	1331.038452	1602.217773	1473.407593	52.500000
866.581360	1170.590698	1566.060547	1444.029785	69.142838
866.882874	1181.889893	1477.927246	1437.250366	86.259544
867.184143	1181.889893	1532.163086	1464.368286	80.645164
867.485535	1141.212891	1523.123779	1410.132446	70.414215
867.786743	1249.684692	1570.580200	1516.344360	83.098595
868.088013	1378.494873	1590.918701	1529.903320	71.276581
868.389160	1249.684692	1649.674194	1518.604126	67.231621
868.690308	1195.448853	1496.005859	1437.250366	80.451134
868.991333	1247.424805	1518.604126	1281.322266	12.500017
869.292358	1229.346191	1618.036621	1466.628174	61.046520
869.593323	1346.857300	1660.973267	1568.320313	70.503586
869.894287	1177.370239	1552.501587	1410.132446	62.048187
870.195068	1251.944458	1577.359619	1439.510132	57.638885
870.495911	1290.361572	1566.060547	1498.265747	75.409843
870.796692	1260.983765	1468.887939	1464.368286	97.826088
871.097412	1211.267578	1444.029785	1486.966553	118.446625
871.398010	1242.905151	1518.604126	1419.171753	63.934441
871.698669	1213.527466	1383.014526	1385.274292	101.333298
871.999207	1267.763306	1507.305054	1464.368286	82.075455
872.299683	1256.464111	1489.226440	1387.534180	56.310688
872.600159	1238.385498	1532.163086	1401.093140	55.384632
872.900574	1209.007813	1477.927246	1453.069214	90.756325
873.200867	1220.306885	1500.525513	1410.132446	67.741951
873.501160	1276.802612	1514.084473	1439.510132	68.571411
873.801392	1204.488159	1509.564819	1444.029785	78.518501
874.101624	1231.606079	1527.643433	1500.525513	90.839699
874.401733	1297.140991	1559.281006	1421.431519	47.413795
874.701843	1245.165039	1518.604126	1493.746094	90.909119
875.001831	1324.259033	1545.722046	1405.612793	36.734695
875.301819	1213.527466	1511.824707	1466.628174	84.848488
875.601746	1272.282959	1586.398926	1523.123779	79.856117
875.901672	1281.322266	1577.359619	1414.652100	45.038177
876.201477	1267.763306	1444.029785	1464.368286	111.538498
876.501282	1202.228271	1498.265747	1410.132446	70.229004
876.800964	1184.149658	1516.344360	1484.706787	90.476196
877.100647	1147.992432	1547.981934	1453.069214	76.271194
877.400208	1181.889893	1559.281006	1421.431519	63.473045
877.699829	1337.817993	1674.532227	1575.099854	70.469803
877.999329	1218.047119	1532.163086	1432.730713	68.345329
878.298767	1184.149658	1493.746094	1414.652100	74.452553
878.598206	1270.023071	1577.359619	1459.848633	61.764721
878.897583	1204.488159	1579.619507	1473.407593	71.686737
879.196838	1227.086426	1507.305054	1394.313599	59.677395
879.496155	1163.811279	1577.359619	1453.069214	69.945374
879.795288	1245.165039	1563.800659	1505.045166	81.560287
880.094482	1238.385498	1588.658813	1541.202393	86.451599
880.393555	1161.551392	1640.634888	1455.328979	61.320747
880.692627	1220.306885	1613.516968	1518.604126	75.862053
880.991577	1254.204346	1692.610840	1557.021240	69.072174
881.290588	1267.763306	1767.185181	1640.634888	74.660645
881.589355	1157.031738	1947.971436	1645.154541	61.714287
881.888306	1213.527466	2180.733643	1972.829468	78.504669
882.187012	1297.140991	2305.024170	2112.938721	80.941696
882.485840	1297.140991	2691.454590	2343.441162	75.040520
882.784424	1265.503418	2901.618652	2519.707764	76.657455
883.083069	1265.503418	3245.112549	2714.052979	73.173515
883.381592	1220.306885	3450.756836	2824.784424	71.935150
883.680176	1186.409546	3541.149902	2958.114258	75.239922
883.978638	1190.929199	3590.865967	3023.649414	76.365356
884.277039	1222.566772	3364.883301	2863.201660	76.582283
884.575378	1249.684692	3380.702148	2754.729980	70.625664
884.873779	1152.512085	3093.704102	2691.454590	79.278221
885.171997	1227.086426	3123.081787	2668.856445	76.042908
885.470276	1256.464111	3118.562012	2714.052979	78.276703
885.768311	1206.747925	2836.083740	2433.834229	75.312057
886.066528	1159.291626	2634.958984	2241.749023	73.353752
886.364502	1143.472778	2528.747070	2146.836182	72.430664
886.662537	1258.723999	2445.133545	2027.065430	64.761902
886.960510	1236.125732	2266.607178	2070.002197	80.921059
887.258362	1249.684692	2219.150635	1911.814209	68.298378
887.556213	1211.267578	1961.530396	1749.106567	71.686745
887.854004	1136.693237	1927.632935	1710.689453	72.571426
888.151733	1242.905151	1891.475708	1624.816040	58.885017
888.449402	1315.219727	1882.436401	1642.894653	57.768917
888.747009	1238.385498	1733.287720	1615.776733	76.255714
889.044617	1132.173584	1697.130493	1543.462280	72.800011
889.342163	1195.448853	1577.359619	1516.344360	84.023689
889.639648	1238.385498	1613.516968	1570.580200	88.554207
889.937012	1141.212891	1536.682739	1459.848633	80.571434
890.234436	1238.385498	1651.933960	1534.422974	71.584709
890.531738	1254.204346	1552.501587	1466.628174	71.212135
890.829041	1199.968506	1579.619507	1455.328979	67.261902
891.126221	1247.424805	1581.879272	1432.730713	55.405422
891.423401	1254.204346	1534.422974	1500.525513	87.903206
891.720459	1236.125732	1509.564819	1421.431519	67.768578
892.017578	1288.101685	1588.658813	1480.187134	63.909798
892.314514	1258.723999	1593.178467	1416.911865	47.297279
892.611511	1281.322266	1520.864014	1523.123779	100.943367
>>>>>End Processed Spectral Data<<<<<
