Jaz Data File
++++++++++++++++++++++++++++++++++++
Date: Mon Apr 25 12:46:12 2016
User: jaz
Dark Spectrum Present: Yes
Reference Spectrum Present: Yes
Processed Spectrum Present: Yes
Spectrometers: JAZA3098
Integration Time (usec): 890000 (JAZA3098)
Spectra Averaged: 1 (JAZA3098)
Boxcar Smoothing: 0 (JAZA3098)
Correct for Electrical Dark: No (JAZA3098)
Strobe/Lamp Enabled: Yes (JAZA3098)
Correct for Detector Non-linearity: No (JAZA3098)
Correct for Stray Light: No (JAZA3098)
Number of Pixels in Processed Spectrum: 2048
>>>>>Begin Processed Spectral Data<<<<<
W	D	R	S	P
190.313904	0.000000	0.000000	0.000000	0.000000
190.695511	0.000000	0.000000	0.000000	0.000000
191.077087	1138.953125	1123.134277	1102.795898	228.570541
191.458633	1184.149658	1227.086426	1091.496704	-215.789307
191.840149	1175.110352	1193.188965	1206.747925	175.000000
192.221634	1213.527466	1215.787231	1186.409546	-1200.032471
192.603088	1206.747925	1308.440186	1211.267578	4.444442
192.984528	1292.621338	1260.983765	1231.606079	192.856949
193.365921	1294.881226	1362.676025	1290.361572	-6.666667
193.747284	1206.747925	1288.101685	1260.983765	66.666664
194.128616	1242.905151	1224.826538	1240.645386	12.499662
194.509918	1303.920532	1306.180420	1265.503418	-1699.956787
194.891190	1256.464111	1281.322266	1213.527466	-172.726608
195.272446	1204.488159	1281.322266	1258.723999	70.588234
195.653656	1419.171753	1367.195679	1321.999146	186.956421
196.034836	1254.204346	1274.542725	1321.999146	333.334320
196.416000	1195.448853	1251.944458	1240.645386	80.000084
196.797104	1290.361572	1312.959839	1283.582031	-30.000271
197.178192	1315.219727	1303.920532	1283.582031	279.999573
197.559265	1328.778687	1227.086426	1222.566772	104.444443
197.940292	1251.944458	1233.865845	1256.464111	-25.000000
198.321304	1288.101685	1236.125732	1272.282959	30.434700
198.702271	1337.817993	1220.306885	1303.920532	28.846176
199.083221	1175.110352	1308.440186	1215.787231	30.508461
199.464111	1220.306885	1308.440186	1193.188965	-30.769209
199.844986	1292.621338	1236.125732	1263.243652	51.999947
200.225830	1245.165039	1303.920532	1224.826538	-34.615490
200.606659	1222.566772	1267.763306	1236.125732	30.000000
200.987427	1389.793945	1385.274292	1434.990479	-1000.000000
201.368195	1290.361572	1373.975220	1288.101685	-2.702774
201.748917	1303.920532	1349.117065	1335.558105	70.000000
202.129608	1288.101685	1274.542725	1256.464111	233.333328
202.510284	1290.361572	1238.385498	1283.582031	13.043580
202.890915	1175.110352	1218.047119	1279.062378	242.104919
203.271515	1242.905151	1249.684692	1195.448853	-699.992798
203.652100	1274.542725	1317.479492	1315.219727	94.736992
204.032623	1251.944458	1312.959839	1281.322266	48.148201
204.413147	1317.479492	1206.747925	1213.527466	93.877502
204.793625	1340.077759	1367.195679	1267.763306	-266.666656
205.174088	1258.723999	1274.542725	1179.630005	-500.002319
205.554504	1215.787231	1297.140991	1186.409546	-36.111034
205.934906	1181.889893	1267.763306	1215.787231	39.473614
206.315247	1193.188965	1213.527466	1263.243652	344.443726
206.695587	1215.787231	1249.684692	1238.385498	66.666550
207.075882	1283.582031	1380.754639	1233.865845	-51.162758
207.456146	1254.204346	1317.479492	1186.409546	-107.142860
207.836380	1353.636719	1290.361572	1283.582031	110.714386
208.216599	1242.905151	1236.125732	1319.739380	-1133.345337
208.596771	1224.826538	1283.582031	1224.826538	0.000000
208.976913	1303.920532	1373.975220	1321.999146	25.806429
209.357025	1383.014526	1498.265747	1480.187134	84.313736
209.737106	1256.464111	1299.400879	1281.322266	57.894798
210.117157	1204.488159	1283.582031	1238.385498	42.857098
210.497177	1202.228271	1335.558105	1263.243652	45.762737
210.877167	1258.723999	1242.905151	1193.188965	414.284515
211.257126	1238.385498	1227.086426	1247.424805	-80.000435
211.637070	1238.385498	1360.416260	1231.606079	-5.555500
212.016968	1227.086426	1267.763306	1215.787231	-27.777927
212.396835	1312.959839	1294.881226	1229.346191	462.500336
212.776672	1186.409546	1238.385498	1197.708618	21.739038
213.156464	1218.047119	1265.503418	1157.031738	-128.571716
213.536255	1231.606079	1231.606079	1229.346191	0.000000
213.916000	1170.590698	1349.117065	1251.944458	45.569603
214.295700	1233.865845	1258.723999	1240.645386	27.272905
214.675400	1258.723999	1321.999146	1256.464111	-3.571525
215.055038	1209.007813	1224.826538	1215.787231	42.856922
215.434662	1267.763306	1319.739380	1265.503418	-4.347939
215.814240	1317.479492	1288.101685	1301.660645	53.846249
216.193787	1265.503418	1285.841919	1229.346191	-177.777237
216.573334	1297.140991	1319.739380	1288.101685	-39.999783
216.952820	1249.684692	1272.282959	1249.684692	0.000000
217.332275	1260.983765	1188.669312	1227.086426	46.874916
217.711716	1378.494873	1387.534180	1387.534180	100.000000
218.091125	1285.841919	1233.865845	1188.669312	186.956421
218.470505	1432.730713	1430.470825	1405.612793	1199.967651
218.849854	1312.959839	1301.660645	1238.385498	659.996948
219.229156	1297.140991	1288.101685	1256.464111	450.000000
219.608444	1233.865845	1297.140991	1175.110352	-92.857140
219.987671	1333.298340	1369.455566	1310.700073	-62.500000
220.366898	1272.282959	1218.047119	1206.747925	120.833443
220.746094	1342.337646	1353.636719	1373.975220	280.001526
221.125244	1344.597412	1394.313599	1335.558105	-18.181818
221.504364	1331.038452	1303.920532	1267.763306	233.333328
221.883469	1229.346191	1283.582031	1270.023071	75.000000
222.262512	1283.582031	1297.140991	1247.424805	-266.666656
222.641556	1177.370239	1209.007813	1177.370239	0.000000
223.020554	1227.086426	1270.023071	1249.684692	52.631653
223.399521	1238.385498	1258.723999	1236.125732	-11.110778
223.778473	1220.306885	1270.023071	1211.267578	-18.181818
224.157364	1168.330933	1265.503418	1301.660645	137.209320
224.536240	1310.700073	1211.267578	1206.747925	104.545448
224.915085	1084.717285	1231.606079	1190.929199	72.307701
225.293900	1215.787231	1344.597412	1215.787231	0.000000
225.672684	1267.763306	1315.219727	1283.582031	33.333160
226.051437	1258.723999	1267.763306	1301.660645	474.999329
226.430161	1175.110352	1319.739380	1260.983765	59.374950
226.808838	1233.865845	1317.479492	1195.448853	-45.945839
227.187500	1353.636719	1342.337646	1331.038452	200.001083
227.566132	1213.527466	1324.259033	1190.929199	-20.408152
227.944717	1265.503418	1294.881226	1251.944458	-46.153751
228.323288	1355.896606	1335.558105	1292.621338	311.110779
228.701813	1251.944458	1297.140991	1258.723999	15.000135
229.080307	1229.346191	1333.298340	1274.542725	43.478210
229.458786	1265.503418	1288.101685	1240.645386	-109.999733
229.837234	1238.385498	1326.518799	1290.361572	58.974388
230.215637	1159.291626	1297.140991	1181.889893	16.393450
230.594009	1236.125732	1398.833252	1331.038452	58.333332
230.972351	1231.606079	1394.313599	1308.440186	47.222221
231.350662	1265.503418	1484.706787	1294.881226	13.402079
231.728958	1188.669312	1410.132446	1209.007813	9.183696
232.107193	1242.905151	1387.534180	1242.905151	0.000000
232.485413	1197.708618	1326.518799	1260.983765	49.122784
232.863602	1204.488159	1367.195679	1247.424805	26.388851
233.241760	1233.865845	1401.093140	1306.180420	43.243286
233.619873	1163.811279	1249.684692	1206.747925	49.999928
233.997986	1331.038452	1416.911865	1369.455566	44.736912
234.376038	1346.857300	1441.770020	1288.101685	-61.904892
234.754074	1242.905151	1453.069214	1254.204346	5.376369
235.132065	1321.999146	1349.117065	1184.149658	-508.333557
235.510025	1231.606079	1410.132446	1358.156372	70.886055
235.887970	1249.684692	1378.494873	1290.361572	31.578932
236.265869	1260.983765	1439.510132	1276.802612	8.860790
236.643738	1245.165039	1432.730713	1283.582031	20.481888
237.021576	1229.346191	1373.975220	1242.905151	9.374992
237.399384	1233.865845	1315.219727	1236.125732	2.777849
237.777161	1265.503418	1419.171753	1349.117065	54.411762
238.154892	1301.660645	1299.400879	1285.841919	700.016235
238.532623	1220.306885	1385.274292	1328.778687	65.753471
238.910309	1279.062378	1389.793945	1292.621338	12.244891
239.287949	1197.708618	1401.093140	1199.968506	1.111140
239.665573	1215.787231	1401.093140	1249.684692	18.292704
240.043167	1251.944458	1441.770020	1270.023071	9.523804
240.420715	1290.361572	1498.265747	1292.621338	1.086927
240.798233	1242.905151	1550.241699	1279.062378	11.764701
241.175735	1312.959839	1527.643433	1290.361572	-10.526313
241.553207	1184.149658	1405.612793	1242.905151	26.530598
241.930634	1222.566772	1493.746094	1283.582031	22.499968
242.308014	1245.165039	1498.265747	1331.038452	33.928555
242.685394	1172.850586	1527.643433	1202.228271	8.280236
243.062729	1272.282959	1622.556274	1346.857300	21.290329
243.440033	1168.330933	1606.737427	1270.023071	23.195856
243.817307	1301.660645	1712.949341	1369.455566	16.483536
244.194534	1163.811279	1746.846802	1337.817993	29.844959
244.571747	1220.306885	1742.327148	1364.935913	27.705635
244.948929	1249.684692	1807.862061	1414.652100	29.554657
245.326065	1188.669312	1733.287720	1441.770020	46.473038
245.703186	1301.660645	1642.894653	1328.778687	7.947052
246.080261	1168.330933	1615.776733	1342.337646	38.888893
246.457306	1206.747925	1660.973267	1349.117065	31.343285
246.834320	1301.660645	1595.438354	1256.464111	-15.384603
247.211304	1258.723999	1719.728760	1272.282959	2.941176
247.588257	1272.282959	1819.161255	1401.093140	23.553720
247.965195	1279.062378	1918.593628	1407.872559	20.141342
248.342087	1199.968506	2018.026001	1401.093140	24.585636
248.718933	1220.306885	1975.089355	1401.093140	23.952101
249.095764	1195.448853	1977.349121	1367.195679	21.965311
249.472549	1247.424805	2207.851563	1346.857300	10.352949
249.849319	1170.590698	2031.585083	1328.778687	18.372709
250.226044	1218.047119	1999.947388	1373.975220	19.942198
250.602737	1193.188965	1857.578247	1385.274292	28.911564
250.979401	1301.660645	1792.043335	1349.117065	9.677425
251.356033	1317.479492	1886.956055	1412.392212	16.666660
251.732635	1260.983765	1731.027954	1290.361572	6.250010
252.109207	1324.259033	1792.043335	1403.352905	16.908194
252.485748	1333.298340	1794.303101	1263.243652	-15.196088
252.862244	1242.905151	1649.674194	1337.817993	23.333349
253.238724	1276.802612	1733.287720	1319.739380	9.405951
253.615158	1267.763306	1758.145874	1312.959839	9.216586
253.991577	1285.841919	1758.145874	1326.518799	8.612437
254.367950	1204.488159	1753.626221	1319.739380	20.987658
254.744308	1394.313599	1884.696289	1459.848633	13.364059
255.120621	1288.101685	1755.886108	1337.817993	10.628038
255.496902	1238.385498	1758.145874	1328.778687	17.391319
255.873154	1211.267578	1674.532227	1245.165039	7.317083
256.249390	1249.684692	1688.091187	1310.700073	13.917536
256.625549	1218.047119	1640.634888	1337.817993	28.342249
257.001709	1358.156372	1789.783447	1405.612793	10.994774
257.377838	1303.920532	1719.728760	1326.518799	5.434781
257.753937	1251.944458	1681.311768	1373.975220	28.421064
258.129974	1170.590698	1726.508301	1270.023071	17.886171
258.506012	1274.542725	1846.279175	1306.180420	5.533615
258.881989	1319.739380	1873.397095	1355.896606	6.530610
259.257935	1240.645386	1905.034668	1328.778687	13.265310
259.633911	1220.306885	1941.191895	1421.431519	27.899683
260.009766	1265.503418	2067.742188	1527.643433	32.676060
260.385651	1358.156372	2323.102783	1545.722046	19.437937
260.761475	1161.551392	2295.984863	1412.392212	22.111549
261.137299	1220.306885	2422.535156	1545.722046	27.067669
261.513062	1179.630005	2576.203369	1473.407593	21.035601
261.888763	1331.038452	2628.179443	1590.918701	20.034849
262.264496	1222.566772	2549.085449	1437.250366	16.183987
262.640137	1227.086426	2329.882324	1425.951172	18.032780
263.015808	1168.330933	2334.401855	1421.431519	21.705420
263.391388	1317.479492	2336.661865	1462.108521	14.190692
263.766998	1315.219727	2239.489258	1554.761353	25.916859
264.142517	1312.959839	2196.552490	1468.887939	17.647057
264.518036	1231.606079	1993.167969	1312.959839	10.682488
264.893524	1251.944458	2058.702881	1353.636719	12.605044
265.268951	1288.101685	2149.095947	1486.966553	23.097118
265.644379	1233.865845	1918.593628	1385.274292	22.112211
266.019745	1193.188965	1945.711548	1428.211060	31.231236
266.395111	1238.385498	1959.270508	1355.896606	16.300951
266.770386	1292.621338	1999.947388	1446.289673	21.725248
267.145691	1233.865845	2038.364502	1430.470825	24.438198
267.520966	1236.125732	2101.639648	1412.392212	20.365528
267.896149	1324.259033	2194.292725	1439.510132	13.246739
268.271362	1240.645386	2214.631104	1444.029785	20.881660
268.646515	1129.913818	2133.277344	1371.715332	24.099094
269.021606	1206.747925	2293.725098	1446.289673	22.037422
269.396729	1209.007813	2203.332031	1392.053833	18.409088
269.771790	1218.047119	2320.843018	1396.573486	16.188522
270.146790	1301.660645	2250.788330	1410.132446	11.428578
270.521790	1401.093140	2286.945557	1568.320313	18.877542
270.896759	1272.282959	2244.008789	1437.250366	16.976744
271.271667	1202.228271	2363.779785	1491.486206	24.902721
271.646545	1199.968506	2384.118164	1405.612793	17.366409
272.021423	1274.542725	2370.559082	1455.328979	16.494850
272.396271	1179.630005	2521.967529	1457.588867	20.707077
272.771027	1215.787231	2562.644531	1511.824707	21.979870
273.145813	1233.865845	2725.352051	1557.021240	21.666670
273.520538	1292.621338	2772.808594	1647.414307	23.969465
273.895233	1206.747925	2756.989746	1557.021240	22.594753
274.269897	1222.566772	2619.140137	1566.060547	24.595469
274.644501	1258.723999	2668.856445	1448.549561	13.461541
275.019135	1249.684692	2603.321289	1473.407593	16.527546
275.393677	1163.811279	2540.046143	1430.470825	19.376020
275.768250	1195.448853	2476.770996	1340.077759	11.287475
276.142700	1224.826538	2472.251465	1462.108521	19.021744
276.517212	1213.527466	2544.565918	1482.446899	20.203732
276.891632	1163.811279	2576.203369	1453.069214	20.480003
277.266022	1292.621338	2646.258057	1455.328979	12.020038
277.640381	1256.464111	2709.533203	1575.099854	21.928465
278.014740	1260.983765	2711.793213	1514.084473	17.445482
278.389038	1213.527466	2707.273438	1559.281006	23.146744
278.763336	1193.188965	2675.635986	1509.564819	21.341461
279.137543	1188.669312	2754.729980	1502.785400	20.057722
279.511780	1240.645386	2621.400146	1516.344360	19.967266
279.885925	1265.503418	2707.273438	1570.580200	21.159878
280.260101	1227.086426	2689.194824	1538.942627	21.329212
280.634186	1195.448853	2775.068359	1586.398926	24.749636
281.008301	1285.841919	2747.950439	1640.634888	24.265844
281.382294	1206.747925	2804.446045	1489.226440	17.680344
281.756348	1267.763306	2942.295654	1651.933960	22.941967
282.130280	1181.889893	3043.987793	1581.879272	21.480577
282.504272	1270.023071	3107.262939	1611.257080	18.573187
282.878143	1229.346191	3247.372314	1663.233154	21.500563
283.252014	1238.385498	3301.608154	1674.532227	21.139101
283.625854	1392.053833	3401.040527	1690.351074	14.848145
283.999664	1263.243652	3321.946533	1608.997314	16.794733
284.373444	1265.503418	3362.623535	1697.130493	20.581896
284.747192	1247.424805	3297.088379	1672.272461	20.727678
285.120941	1294.881226	3416.859375	1776.224487	22.683706
285.494629	1161.551392	3326.466309	1581.879272	19.415445
285.868256	1202.228271	3407.820068	1633.855347	19.569672
286.241882	1324.259033	3642.842041	1710.689453	16.666662
286.615448	1256.464111	3688.038574	1724.248413	19.237919
286.988983	1202.228271	3520.811523	1726.508301	22.612085
287.362518	1344.597412	3848.486328	1841.759521	19.855598
287.736023	1179.630005	3929.840332	1828.200562	23.582579
288.109467	1290.361572	3758.093262	1807.862061	20.970695
288.482880	1317.479492	3782.951416	1776.224487	18.606783
288.856262	1355.896606	3778.431885	1877.916748	21.548506
289.229584	1249.684692	3645.102051	1830.460327	24.245277
289.602936	1240.645386	3819.108643	1710.689453	18.229620
289.976227	1224.826538	3617.984131	1794.303101	23.796032
290.349457	1303.920532	3721.936035	1753.626221	18.598129
290.722687	1247.424805	3593.125977	1783.004028	22.832373
291.095886	1247.424805	3916.281250	1742.327148	18.543610
291.469025	1206.747925	3823.628418	1755.886108	20.984459
291.842133	1224.826538	4078.988770	1889.215942	23.277914
292.215240	1294.881226	4049.611084	1923.113281	22.805576
292.588287	1220.306885	4162.602539	1905.034668	23.271889
292.961304	1222.566772	4076.729004	1844.019287	21.773554
293.334320	1276.802612	4015.713623	1954.750854	24.752474
293.707245	1213.527466	3927.580322	1825.940674	22.564529
294.080170	1202.228271	3999.894775	1866.617554	23.747980
294.453064	1215.787231	4060.910156	1853.058594	22.398727
294.825897	1236.125732	4173.901367	1938.932129	23.923079
295.198730	1184.149658	4230.397461	1857.578247	22.106823
295.571533	1215.787231	4390.845215	1945.711548	22.989321
295.944275	1310.700073	4413.443359	2063.222656	24.253460
296.317017	1247.424805	4711.740723	2140.056641	25.766468
296.689697	1222.566772	4720.779785	2106.159424	25.258402
297.062317	1249.684692	4815.692871	2038.364502	22.116600
297.434967	1274.542725	4973.880371	2092.600342	22.113625
297.807526	1238.385498	4994.219238	2149.095947	24.247890
298.180115	1209.007813	5003.258301	2108.419189	23.704586
298.552612	1199.968506	5107.210449	2090.340576	22.787739
298.925110	1267.763306	5080.092285	2253.048096	25.844694
299.297546	1260.983765	5102.690918	2253.048096	25.823528
299.669983	1206.747925	4958.062012	2187.513184	26.144579
300.042358	1274.542725	4811.172852	2185.253418	25.750805
300.414734	1285.841919	4533.214355	2042.884155	23.312454
300.787048	1288.101685	4650.725098	2022.545654	21.841398
301.159332	1236.125732	4393.104980	2031.585083	25.196852
301.531616	1222.566772	4408.923828	1990.908081	24.113472
301.903809	1249.684692	4368.246582	2088.080811	26.884062
302.276031	1193.188965	4345.648438	2092.600342	28.530466
302.648163	1206.747925	4429.262207	2042.884155	25.946705
303.020294	1195.448853	4381.805664	1966.050049	24.184397
303.392395	1213.527466	4390.845215	2004.467041	24.893311
303.764435	1209.007813	4402.144043	2038.364502	25.973106
304.136444	1279.062378	4234.916992	1999.947388	24.388380
304.508453	1236.125732	4239.436523	2027.065430	26.335592
304.880371	1299.400879	4223.617676	2049.663574	25.656878
305.252319	1222.566772	4185.200684	2027.065430	27.154846
305.624207	1281.322266	4176.161621	1970.569702	23.809523
305.996033	1260.983765	4180.681152	1941.191895	23.297215
306.367859	1132.173584	4049.611084	1981.868774	29.124710
306.739655	1213.527466	4210.059082	1882.436401	22.322771
307.111389	1209.007813	4130.964844	1952.491089	25.444702
307.483124	1190.929199	4142.264160	1938.932129	25.344563
307.854828	1301.660645	4243.956055	2033.844849	24.884796
308.226471	1256.464111	4203.279297	2008.986694	25.536810
308.598083	1326.518799	4365.986816	1898.255249	18.810411
308.969666	1233.865845	4259.774902	1957.010742	23.898434
309.341187	1256.464111	4404.403809	1979.609009	22.972006
309.712738	1236.125732	4585.190430	2058.702881	24.561399
310.084167	1211.267578	4614.567871	2099.379883	26.095619
310.455658	1324.259033	4973.880371	2171.694336	23.219814
310.827057	1238.385498	4919.644531	2187.513184	25.782692
311.198456	1215.787231	4838.291016	2207.851563	27.386148
311.569794	1267.763306	5062.013672	2178.473877	24.002384
311.941132	1233.865845	5041.675293	2223.670410	25.994066
312.312408	1204.488159	4960.321777	2144.576416	25.030083
312.683655	1224.826538	4951.282227	2282.425781	28.380836
313.054840	1279.062378	4761.456543	2225.930176	27.190140
313.426056	1333.298340	4933.203613	2219.150635	24.607656
313.797180	1328.778687	5048.455078	2246.268555	24.665854
314.168304	1260.983765	4689.142090	2196.552490	27.290710
314.539368	1211.267578	4589.709961	2158.135254	28.026752
314.910431	1236.125732	4702.701172	2173.954102	27.053453
315.281433	1274.542725	4790.834473	2246.268555	27.634960
315.652435	1303.920532	5007.777832	2262.087402	25.869432
316.023346	1245.165039	4991.958984	2250.788330	26.839567
316.394287	1238.385498	4964.841309	2142.316650	24.257128
316.765137	1199.968506	4845.070313	2167.174561	26.534405
317.135986	1303.920532	4962.581543	2316.323242	27.671398
317.506775	1224.826538	4686.882324	2137.796875	26.370758
317.877594	1319.739380	4695.921875	2219.150635	26.639887
318.248291	1294.881226	4431.521973	2155.875488	27.449566
318.619019	1242.905151	4614.567871	2207.851563	28.619305
318.989655	1274.542725	4734.338867	2219.150635	27.302416
319.360321	1299.400879	4695.921875	2155.875488	25.216232
319.730896	1328.778687	4655.245117	2094.860107	23.029886
320.101501	1242.905151	4601.008789	2135.537109	26.581430
320.472015	1218.047119	4704.960938	2119.718262	25.858717
320.842529	1190.929199	4668.803711	2164.914795	28.005198
321.213013	1211.267578	4727.559570	2115.198730	25.706942
321.583466	1299.400879	4623.607422	2135.537109	25.152956
321.953827	1240.645386	4560.332031	2173.954102	28.114363
322.324188	1272.282959	4558.072266	2076.781494	24.484179
322.694519	1143.472778	4619.087402	2076.781494	26.853054
323.064819	1310.700073	4677.843262	2101.639648	23.489931
323.435059	1294.881226	4985.179688	2291.465088	27.005508
323.805328	1310.700073	4899.306152	2246.268555	26.070526
324.175507	1337.817993	5089.131836	2216.890869	23.433733
324.545685	1229.346191	5202.123047	2221.410645	24.971563
324.915802	1303.920532	5559.175781	2309.543701	23.632498
325.285919	1290.361572	5683.466309	2413.495850	25.565845
325.655975	1260.983765	5584.034180	2472.251465	28.018820
326.025970	1129.913818	5450.704102	2350.220703	28.242680
326.395966	1263.243652	5428.105957	2399.937012	27.292459
326.765930	1181.889893	5471.042480	2343.441162	27.081139
327.135864	1227.086426	5577.254395	2438.354004	27.844156
327.505737	1233.865845	5484.601563	2332.142090	25.837320
327.875580	1247.424805	5319.634277	2397.677002	28.246391
328.245422	1455.328979	5572.734863	2535.526611	26.234909
328.615204	1222.566772	5265.398438	2465.471924	30.743431
328.984955	1188.669312	5159.186523	2289.205322	27.717699
329.354675	1218.047119	5206.642578	2282.425781	26.685551
329.724365	1224.826538	5048.455078	2282.425781	27.659573
330.093994	1238.385498	5048.455078	2309.543701	28.113874
330.463623	1218.047119	5109.470215	2300.504395	27.816488
330.833191	1211.267578	5276.697266	2286.945557	26.459146
331.202759	1215.787231	5118.509766	2420.275391	30.862766
331.572266	1125.394165	5254.099121	2314.063477	28.790367
331.941711	1251.944458	5414.546875	2363.779785	26.710100
332.311188	1231.606079	5407.767578	2449.653076	29.166664
332.680573	1209.007813	5428.105957	2334.401855	26.673805
333.049988	1242.905151	5466.522949	2334.401855	25.842697
333.419312	1215.787231	5839.394531	2542.306152	28.690128
333.788635	1233.865845	5868.772461	2506.148926	27.450026
334.157867	1222.566772	5880.071289	2558.124756	28.675400
334.527130	1236.125732	5904.929688	2569.424072	28.557602
334.896332	1294.881226	6117.353516	2698.234131	29.100281
335.265503	1163.811279	6178.368652	2571.683838	28.075708
335.634613	1317.479492	6214.525879	2510.668457	24.365482
336.003723	1265.503418	6054.078125	2598.801758	27.843323
336.372772	1319.739380	6169.329590	2571.683838	25.815468
336.741821	1254.204346	5952.385742	2445.133545	25.348726
337.110809	1204.488159	5859.732910	2375.078857	25.145632
337.479797	1220.306885	5920.748535	2560.384766	28.509619
337.848724	1281.322266	6006.621582	2569.424072	27.259687
338.217590	1254.204346	5947.866211	2537.786377	27.347134
338.586487	1134.433472	5850.693848	2422.535156	27.311930
338.955292	1267.763306	5970.464355	2524.227539	26.717926
339.324036	1179.630005	5961.425293	2531.006836	28.260866
339.692841	1215.787231	5954.645996	2582.982910	28.850737
340.061523	1233.865845	5744.481934	2447.393311	26.903807
340.430237	1138.953125	5857.473145	2533.266846	29.549810
340.798859	1340.077759	6015.661133	2582.982910	26.582888
341.167511	1175.110352	5816.796387	2542.306152	29.454723
341.536072	1258.723999	5913.968750	2508.408691	26.844662
341.904663	1238.385498	5945.606445	2531.006836	27.460394
342.273102	1242.905151	6035.999512	2612.360840	28.571432
342.641632	1392.053833	6359.154785	2820.264893	28.753412
343.010040	1297.140991	6144.471191	2508.408691	24.988348
343.378510	1190.929199	6225.825195	2621.400146	28.411133
343.746826	1220.306885	6320.737793	2512.928223	25.343376
344.115204	1297.140991	6309.438477	2637.218750	26.735800
344.483490	1274.542725	6440.508789	2612.360840	25.896767
344.851776	1242.905151	6591.916992	2689.194824	27.038446
345.220001	1256.464111	6781.742676	2770.548584	27.402863
345.588196	1224.826538	6881.175293	2702.753906	26.128647
345.956329	1263.243652	6752.364746	2784.107666	27.706877
346.324524	1274.542725	7003.205566	2734.391357	25.483234
346.692596	1301.660645	6946.709961	2795.406738	26.461170
347.060669	1376.234985	7220.149414	2912.917725	26.295435
347.428680	1238.385498	6720.727539	2725.352051	27.122835
347.796692	1229.346191	6774.963379	2614.620605	24.979626
348.164612	1299.400879	6429.209473	2743.430664	28.149778
348.532562	1297.140991	6777.223145	2770.548584	26.886597
348.900421	1342.337646	6623.554688	2836.083740	28.284128
349.268311	1283.582031	6139.951660	2668.856445	28.524897
349.636108	1213.527466	6334.296875	2714.052979	29.302734
350.003906	1249.684692	6393.052246	2535.526611	25.000000
350.371643	1202.228271	6510.563477	2668.856445	27.628780
350.739380	1308.440186	6860.836426	2759.249512	26.129425
351.107025	1256.464111	6677.790527	2680.155518	26.260944
351.474701	1199.968506	6657.452148	2729.871826	28.033129
351.842285	1170.590698	6643.893066	2693.714600	27.828243
352.209900	1202.228271	6865.356445	2747.950439	27.294495
352.577393	1340.077759	6854.057129	2795.406738	26.393442
352.944946	1236.125732	6849.537598	2677.895752	25.684378
353.312378	1163.811279	6811.120605	2682.415283	26.890753
353.679840	1215.787231	6722.987305	2698.234131	26.918341
354.047211	1213.527466	7204.330566	2732.131592	25.348923
354.414612	1154.771851	7308.282715	2770.548584	26.257803
354.781891	1184.149658	7470.990234	2752.469971	24.946079
355.149231	1213.527466	7687.933594	2851.902344	25.305407
355.516449	1222.566772	7676.634277	2987.492188	27.345940
355.883698	1188.669312	7837.082031	2962.634033	26.682531
356.250854	1281.322266	8112.781250	3093.704102	26.529938
356.618011	1247.424805	8230.291992	3109.522705	26.666666
356.985168	1181.889893	8282.268555	3062.066406	26.479946
357.352234	1299.400879	8591.864258	3152.459473	25.410599
357.719269	1233.865845	8779.430664	3346.804688	28.002396
358.086304	1220.306885	9079.987305	3272.230469	26.106958
358.453278	1251.944458	9233.655273	3310.647461	25.792755
358.820190	1310.700073	9231.395508	3303.867920	25.164051
359.187103	1215.787231	9714.999023	3392.001221	25.604891
359.554016	1238.385498	9550.031250	3335.505615	25.231106
359.920837	1204.488159	9450.598633	3224.773926	24.499863
360.287628	1231.606079	9328.568359	3351.324463	26.179178
360.654388	1254.204346	9333.087891	3279.009766	25.062935
361.021149	1233.865845	9818.951172	3353.584229	24.690708
361.387848	1220.306885	10264.136719	3491.433594	25.112444
361.754486	1254.204346	10833.613281	3559.228516	24.062279
362.121124	1238.385498	11364.672852	3785.211182	25.150637
362.487732	1163.811279	11803.080078	3925.320557	25.955818
362.854279	1202.228271	11907.031250	3803.289795	24.298080
363.220795	1328.778687	12013.243164	4036.052002	25.338409
363.587311	1317.479492	11739.804688	4049.611084	26.214224
363.953735	1186.409546	10881.070313	3764.872803	26.596735
364.320160	1231.606079	10487.860352	3489.173828	24.389648
364.686554	1218.047119	9859.627930	3358.103760	24.764643
365.052887	1209.007813	9348.907227	3236.073242	24.902832
365.419189	1195.448853	8998.633789	3204.435547	25.745728
365.785492	1157.031738	8867.563477	3080.145020	24.941383
366.151703	1242.905151	8709.375977	3016.869873	23.759079
366.517944	1331.038452	8718.415039	3037.208252	23.095747
366.884094	1335.558105	8695.816406	3245.112549	25.944122
367.250214	1260.983765	8625.761719	3071.105713	24.578093
367.616333	1285.841919	8569.266602	3091.444092	24.790565
367.982361	1215.787231	8334.244141	3098.223633	26.444445
368.348419	1141.212891	8316.166016	3034.948486	26.393700
368.714386	1231.606079	8280.008789	2949.074951	24.366781
369.080383	1340.077759	8327.464844	3016.869873	23.997412
369.446289	1358.156372	8255.150391	3025.909180	24.180864
369.812195	1319.739380	8277.749023	3053.027100	24.910683
370.178009	1209.007813	8049.505859	2840.603271	23.851997
370.543854	1184.149658	8126.340332	2797.666504	23.242186
370.909607	1238.385498	8171.536621	2919.697266	24.250326
371.275360	1166.071045	8090.182617	2775.068359	23.237600
371.641052	1249.684692	8657.399414	2978.452881	23.337402
372.006744	1220.306885	8539.888672	3025.909180	24.668106
372.372375	1290.361572	8505.991211	3032.688721	24.146570
372.737976	1238.385498	8596.383789	2944.555420	23.187963
373.103546	1251.944458	8585.084961	2928.736572	22.865948
373.469055	1267.763306	8594.124023	2863.201660	21.776682
373.834595	1319.739380	8731.973633	2985.232178	22.469511
374.199982	1215.787231	8594.124023	2973.933105	23.828485
374.565460	1290.361572	8508.250977	2858.681885	21.728239
374.930817	1211.267578	8741.013672	2818.005127	21.338535
375.296204	1179.630005	8887.902344	2874.500732	21.987686
375.661499	1260.983765	8792.989258	2933.256348	22.202223
376.026825	1394.313599	9147.782227	3037.208252	21.189157
376.391998	1179.630005	9226.875977	2869.980957	21.005335
376.757263	1179.630005	9285.631836	3005.570801	22.525787
377.122406	1175.110352	9475.457031	3007.830566	22.080044
377.487549	1229.346191	10017.815430	3102.743408	21.316538
377.852631	1118.614624	10304.813477	3030.428711	20.811808
378.217743	1240.645386	10632.489258	3152.459473	20.356110
378.582764	1211.267578	10435.883789	3089.184326	20.357668
378.947754	1270.023071	10625.708984	3193.136475	20.555559
379.312714	1272.282959	10411.025391	3206.695313	21.167162
379.677673	1184.149658	9916.124023	3016.869873	20.988611
380.042542	1231.606079	9647.204102	2955.854492	20.488722
380.407379	1272.282959	9685.621094	2971.673340	20.198765
380.772186	1224.826538	9265.292969	2820.264893	19.842609
381.136993	1209.007813	9276.592773	2745.690430	19.047617
381.501740	1204.488159	9267.552734	2734.391357	18.974215
381.866486	1220.306885	9263.033203	2890.319580	20.764261
382.231110	1206.747925	9172.640625	2824.784424	20.312056
382.595764	1195.448853	9301.450195	2799.926514	19.793701
382.960327	1209.007813	9231.395508	2666.596680	18.169016
383.324951	1224.826538	9376.024414	2779.587891	19.074022
383.689453	1209.007813	9389.583984	2784.107666	19.254143
384.053986	1229.346191	9640.424805	2818.005127	18.887697
384.418396	1229.346191	9597.488281	2831.563965	19.146635
384.782867	1222.566772	9807.651367	2786.367432	18.215319
385.147217	1249.684692	9979.398438	2869.980957	18.560703
385.511597	1215.787231	9999.737305	2883.540039	18.986364
385.875885	1238.385498	10173.744141	2831.563965	17.830046
386.240204	1251.944458	10327.412109	2741.170898	16.409363
386.604401	1312.959839	10058.493164	2775.068359	16.718346
386.968628	1279.062378	10562.434570	2863.201660	17.064266
387.332764	1265.503418	10255.097656	2797.666504	17.043741
387.696930	1242.905151	10496.899414	2772.808594	16.532358
388.061005	1360.416260	10711.583008	2926.476807	16.747221
388.425140	1229.346191	10521.757813	2872.240967	17.679960
388.789124	1292.621338	10591.812500	2847.382813	16.719318
389.153168	1301.660645	10695.763672	2664.336670	14.505652
389.517090	1161.551392	10503.678711	2711.793213	16.594099
389.881042	1218.047119	10429.104492	2653.037598	15.578998
390.244873	1199.968506	10331.931641	2605.581299	15.392231
390.608734	1215.787231	10594.072266	2781.847900	16.698795
390.972534	1231.606079	10657.346680	2677.895752	15.344044
391.336304	1195.448853	10996.321289	2639.478760	14.733688
391.700043	1233.865845	11125.130859	2639.478760	14.210649
392.063751	1195.448853	11511.561523	2684.675293	14.435927
392.427399	1186.409546	11536.419922	2829.304199	15.873362
392.791077	1351.376953	12026.802734	2910.657959	14.606265
393.154663	1283.582031	11866.354492	2872.240967	15.011746
393.518219	1267.763306	11570.317383	2775.068359	14.630403
393.881744	1274.542725	11821.158203	2741.170898	13.906151
394.245209	1188.669312	11344.334961	2729.871826	15.175790
394.608704	1166.071045	11518.341797	2553.605225	13.403187
394.972107	1279.062378	11457.326172	2576.203369	12.744226
395.335480	1240.645386	11751.103516	2741.170898	14.276500
395.698792	1150.252197	11579.356445	2639.478760	14.279525
396.062103	1403.352905	11773.702148	2754.729980	13.031162
396.425385	1249.684692	11192.925781	2580.723145	13.386364
396.788635	1209.007813	11104.792969	2612.360840	14.181321
397.151825	1161.551392	10892.369141	2427.054932	13.005111
397.514984	1202.228271	10858.471680	2503.888916	13.479990
397.878113	1233.865845	10591.812500	2506.148926	13.595751
398.241180	1154.771851	10406.505859	2352.480469	12.945774
398.604248	1195.448853	10440.403320	2386.377930	12.881936
398.967285	1288.101685	10284.475586	2431.574463	12.710374
399.330231	1256.464111	10399.726563	2429.314697	12.827484
399.693176	1227.086426	10092.389648	2334.401855	12.490441
400.056091	1238.385498	10370.348633	2413.495850	12.868103
400.418976	1193.188965	10139.846680	2302.764404	12.402122
400.781830	1206.747925	10313.853516	2316.323242	12.183622
401.144592	1175.110352	10085.610352	2291.465088	12.528531
401.507355	1202.228271	10087.870117	2318.583252	12.563583
401.870087	1193.188965	10063.012695	2323.102783	12.738853
402.232758	1204.488159	10234.758789	2286.945557	11.986987
402.595428	1378.494873	10433.624023	2485.810303	12.228600
402.958038	1256.464111	10474.300781	2264.347168	10.934052
403.320618	1186.409546	10388.427734	2309.543701	12.205302
403.683167	1274.542725	11118.351563	2323.102783	10.651976
404.045654	1229.346191	11129.651367	2366.039551	11.481398
404.408142	1159.291626	11220.043945	2291.465088	11.253368
404.770569	1211.267578	11285.579102	2282.425781	10.632569
405.132996	1263.243652	11764.662109	2377.338623	10.608995
405.495331	1199.968506	11827.937500	2347.960938	10.801617
405.857666	1294.881226	12169.171875	2494.849609	11.034911
406.219940	1247.424805	11983.866211	2379.598389	10.545148
406.582214	1199.968506	11787.260742	2372.819092	11.077909
406.944427	1258.723999	11742.064453	2329.882324	10.217719
407.306549	1240.645386	11620.033203	2357.000244	10.755498
407.668732	1229.346191	11717.206055	2336.661865	10.558071
408.030792	1238.385498	11333.035156	2406.716309	11.573763
408.392914	1168.330933	11461.845703	2295.984863	10.954994
408.754883	1245.165039	11163.548828	2259.827637	10.230121
409.116943	1260.983765	11296.877930	2153.615723	8.894394
409.478882	1251.944458	11436.987305	2327.622559	10.561351
409.840820	1385.274292	11705.907227	2411.236084	9.940881
410.202667	1190.929199	11649.411133	2338.921631	10.976664
410.564575	1236.125732	11780.481445	2327.622559	10.351480
410.926331	1175.110352	11816.638672	2225.930176	9.874708
411.288147	1202.228271	11936.409180	2207.851563	9.368422
411.649872	1236.125732	11719.465820	2273.386475	9.894373
412.011566	1227.086426	11606.474609	2137.796875	8.774220
412.373199	1236.125732	11527.380859	2248.528564	9.837506
412.734894	1213.527466	11525.121094	2232.709717	9.883848
413.096436	1240.645386	11272.020508	2115.198730	8.718180
413.458008	1199.968506	11425.688477	2135.537109	9.149171
413.819519	1260.983765	11733.025391	2135.537109	8.351316
414.181030	1229.346191	11751.103516	2189.772949	9.128007
414.542450	1222.566772	11529.640625	2164.914795	9.142731
414.903870	1229.346191	11739.804688	2246.268555	9.675338
415.265198	1179.630005	11834.716797	2160.395264	9.204667
415.626587	1157.031738	11730.765625	2192.032715	9.788415
415.987854	1242.905151	12110.416016	2119.718262	8.068206
416.349152	1186.409546	12316.060547	2167.174561	8.812181
416.710327	1258.723999	12435.831055	2160.395264	8.067125
417.071533	1279.062378	12435.831055	2194.292725	8.203364
417.432678	1213.527466	12871.978516	2237.229248	8.780770
417.793823	1136.693237	13201.913086	2257.567871	9.290131
418.154877	1175.110352	13638.059570	2275.646484	8.830463
418.515930	1258.723999	13986.073242	2302.764404	8.203125
418.876923	1224.826538	14435.778320	2458.692383	9.339719
419.237915	1299.400879	15188.301758	2526.487305	8.835015
419.598816	1197.708618	15482.079102	2497.109619	9.096663
419.959717	1227.086426	16047.036133	2420.275391	8.051235
420.320526	1179.630005	16704.646484	2521.967529	8.646287
420.681396	1224.826538	17432.310547	2648.518066	8.784161
421.042145	1206.747925	17556.601563	2576.203369	8.375949
421.402924	1249.684692	18347.541016	2607.841064	7.943431
421.763580	1238.385498	18754.308594	2603.321289	7.792542
422.124298	1202.228271	19448.076172	2621.400146	7.778054
422.484894	1288.101685	19635.642578	2840.603271	8.461633
422.845520	1209.007813	19332.826172	2860.941650	9.114712
423.206055	1218.047119	19445.816406	2700.493896	8.132903
423.566589	1197.708618	19131.701172	2643.998291	8.064516
423.927063	1145.732544	19292.148438	2691.454590	8.518057
424.287506	1240.645386	18711.373047	2634.958984	7.980855
424.647949	1227.086426	19115.880859	2564.904297	7.478524
425.008301	1227.086426	19378.021484	2714.052979	8.192231
425.368652	1242.905151	19511.351563	2705.013672	8.003464
425.728943	1209.007813	19341.865234	2469.991699	6.954138
426.089203	1114.094971	19262.771484	2571.683838	8.031379
426.449432	1181.889893	18998.371094	2578.463379	7.838661
426.809601	1222.566772	19032.267578	2564.904297	7.537114
427.169739	1229.346191	18749.789063	2573.943604	7.674448
427.529846	1355.896606	18480.871094	2607.841064	7.310636
427.889954	1358.156372	18164.494141	2725.352051	8.135000
428.250000	1270.023071	17450.388672	2598.801758	8.212291
428.609985	1213.527466	17258.302734	2422.535156	7.535211
428.969940	1231.606079	17036.839844	2397.677002	7.377752
429.329865	1297.140991	16677.527344	2415.755615	7.272994
429.689789	1283.582031	16397.308594	2384.118164	7.281699
430.049622	1283.582031	16460.583984	2359.260010	7.087553
430.409454	1276.802612	16139.688477	2370.559082	7.358978
430.769226	1290.361572	15583.771484	2433.834229	7.999999
431.128937	1254.204346	15540.834961	2284.685791	7.212907
431.488678	1199.968506	15680.943359	2325.362549	7.771535
431.848328	1179.630005	15963.421875	2352.480469	7.933353
432.207947	1190.929199	15581.511719	2253.048096	7.380653
432.567566	1254.204346	15782.635742	2316.323242	7.310623
432.927124	1240.645386	16254.940430	2397.677002	7.706200
433.286621	1231.606079	16408.607422	2433.834229	7.921381
433.646118	1299.400879	16736.283203	2429.314697	7.319572
434.005554	1260.983765	16799.558594	2363.779785	7.097150
434.364960	1279.062378	16860.574219	2474.511230	7.672226
434.724335	1188.669312	16623.291016	2488.070313	8.418742
435.083649	1306.180420	16756.621094	2433.834229	7.298522
435.442932	1220.306885	16388.269531	2402.196777	7.792015
435.802216	1337.817993	16813.117188	2592.022217	8.104556
436.161407	1254.204346	16537.417969	2422.535156	7.644536
436.520630	1254.204346	16286.577148	2431.574463	7.832231
436.879761	1220.306885	16763.400391	2415.755615	7.691189
437.238831	1202.228271	16975.824219	2445.133545	7.879657
437.597931	1233.865845	16930.628906	2384.118164	7.327959
437.956940	1222.566772	16876.392578	2399.937012	7.521294
438.315948	1213.527466	16980.343750	2503.888916	8.184033
438.674896	1270.023071	17127.234375	2515.188232	7.852359
439.033844	1236.125732	16539.677734	2413.495850	7.693444
439.392700	1193.188965	16822.156250	2359.260010	7.460960
439.751556	1279.062378	17134.013672	2411.236084	7.140821
440.110352	1147.992432	17823.259766	2377.338623	7.372272
440.469116	1288.101685	17877.496094	2512.928223	7.383190
440.827850	1163.811279	18114.777344	2494.849609	7.852286
441.186554	1310.700073	19167.857422	2524.227539	6.795748
441.545197	1229.346191	19154.298828	2508.408691	7.135653
441.903809	1276.802612	19470.673828	2531.006836	6.893553
442.262390	1260.983765	18980.292969	2558.124756	7.320494
442.620941	1260.983765	18923.796875	2754.729980	8.457012
442.979462	1224.826538	19131.701172	2555.864990	7.433114
443.337921	1240.645386	18625.500000	2666.596680	8.202261
443.696350	1256.464111	18625.500000	2506.148926	7.194901
444.054718	1229.346191	17945.291016	2528.747070	7.773421
444.413086	1376.234985	18923.796875	2711.793213	7.611075
444.771423	1249.684692	18989.332031	2686.935059	8.101911
445.129669	1247.424805	18150.935547	2564.904297	7.794117
445.487915	1202.228271	17271.863281	2420.275391	7.579806
445.846130	1175.110352	18291.044922	2451.912842	7.459730
446.204285	1163.811279	17888.794922	2569.424072	8.404269
446.562408	1279.062378	19023.228516	2698.234131	7.997962
446.920532	1170.590698	19631.123047	2580.723145	7.638633
447.278595	1331.038452	20288.732422	2700.493896	7.223745
447.636566	1202.228271	20810.751953	2648.518066	7.375822
447.994568	1256.464111	21423.166016	2795.406738	7.631107
448.352509	1220.306885	21350.851563	2872.240967	8.206107
448.710419	1150.252197	21090.970703	2842.863037	8.488214
449.068237	1218.047119	20668.382813	2806.705811	8.167770
449.426056	1267.763306	21215.261719	2806.705811	7.714965
449.783844	1251.944458	20485.337891	2653.037598	7.284690
450.141602	1265.503418	20049.191406	2668.856445	7.471127
450.499329	1218.047119	19857.105469	2643.998291	7.650339
450.856964	1292.621338	19228.873047	2732.131592	8.025702
451.214630	1199.968506	19246.951172	2736.651123	8.514900
451.572235	1209.007813	18851.482422	2643.998291	8.133725
451.929779	1184.149658	18975.773438	2707.273438	8.560905
452.287323	1229.346191	18643.578125	2691.454590	8.396054
452.644806	1306.180420	18752.048828	2655.297363	7.733160
453.002258	1292.621338	18844.703125	2738.911133	8.239990
453.359650	1292.621338	18309.123047	2723.092285	8.406375
453.717010	1369.455566	18444.712891	2754.729980	8.112759
454.074341	1283.582031	18144.156250	2623.659912	7.947997
454.431641	1276.802612	18001.787109	2716.312744	8.606944
454.788910	1240.645386	17588.238281	2641.738525	8.570639
455.146118	1233.865845	17534.001953	2693.714600	8.956053
455.503296	1209.007813	17285.421875	2614.620605	8.743323
455.860443	1184.149658	17359.996094	2628.179443	8.927073
456.217560	1285.841919	17179.208984	2569.424072	8.076213
456.574615	1294.881226	17369.035156	2693.714600	8.702376
456.931641	1297.140991	17039.099609	2750.210205	9.230549
457.288635	1263.243652	17258.302734	2666.596680	8.773666
457.645599	1247.424805	17063.958984	2702.753906	9.201315
458.002502	1299.400879	17475.246094	2716.312744	8.759430
458.359375	1199.968506	17425.531250	2621.400146	8.760446
458.716217	1247.424805	18062.802734	2808.965820	9.286386
459.073029	1204.488159	18982.552734	2917.437500	9.635184
459.429779	1283.582031	19958.796875	2982.972412	9.099710
459.786499	1274.542725	21323.732422	3116.302246	9.186204
460.143219	1272.282959	22751.945313	3211.215088	9.026828
460.499847	1170.590698	22354.214844	3274.490234	9.931726
460.856476	1258.723999	23398.255859	3344.544922	9.421251
461.213043	1292.621338	23536.105469	3324.206299	9.133393
461.569550	1206.747925	23217.468750	3324.206299	9.620124
461.926056	1346.857300	22652.511719	3466.575439	9.949088
462.282501	1256.464111	21780.218750	3308.387695	9.997799
462.638916	1254.204346	20702.281250	3229.293701	10.155705
462.995331	1175.110352	20449.179688	3274.490234	10.892250
463.351654	1231.606079	20227.716797	3077.885254	9.719248
463.707947	1272.282959	19741.853516	3254.151855	10.730454
464.064209	1351.376953	19280.849609	3143.420166	9.994958
464.420441	1240.645386	19036.787109	3136.640625	10.653968
464.776642	1209.007813	18406.296875	3082.404785	10.893559
465.132782	1249.684692	18580.302734	3233.813232	11.448689
465.488892	1254.204346	18415.335938	3105.003174	10.784830
465.844971	1206.747925	18695.554688	3123.081787	10.957488
466.201019	1254.204346	18733.970703	3353.584229	12.010344
466.557007	1242.905151	19000.630859	3349.064453	11.860522
466.912964	1251.944458	19427.738281	3434.937988	12.010446
467.268890	1213.527466	19622.083984	3443.977295	12.116375
467.624756	1220.306885	19364.462891	3493.693604	12.529581
467.980591	1242.905151	20046.931641	3622.503662	12.654729
468.336426	1213.527466	19755.412109	3588.606201	12.809262
468.692169	1213.527466	19617.564453	3566.008057	12.782415
469.047913	1211.267578	19005.150391	3636.062744	13.627128
469.403625	1218.047119	19255.990234	3489.173828	12.590830
469.759247	1134.433472	18935.095703	3658.660889	14.180526
470.114838	1265.503418	18600.640625	3651.881348	13.766132
470.470459	1175.110352	18666.175781	3785.211182	14.922480
470.825958	1141.212891	18295.564453	3525.331055	13.898037
471.181488	1247.424805	18288.785156	3724.195801	14.533881
471.536926	1211.267578	18336.242188	3816.848877	15.215096
471.892365	1184.149658	18385.957031	3660.920654	14.398319
472.247742	1254.204346	18765.609375	3846.226563	14.801909
472.603058	1181.889893	18593.861328	3981.816162	16.080467
472.958374	1215.787231	19113.621094	4020.233398	15.669194
473.313629	1172.850586	18991.591797	4092.547852	16.385540
473.668884	1238.385498	19231.132813	4291.412598	16.968098
474.024048	1227.086426	19622.083984	4223.617676	16.289925
474.379211	1265.503418	19457.115234	4259.774902	16.459627
474.734314	1242.905151	19574.626953	4354.687988	16.974852
475.089417	1179.630005	19330.564453	4316.270508	17.280878
475.444458	1193.188965	19518.130859	4381.805664	17.400419
475.799438	1204.488159	19344.125000	4384.065430	17.528339
476.154388	1150.252197	19599.484375	4555.812500	18.459089
476.509308	1224.826538	20205.119141	4750.157715	18.573639
476.864197	1270.023071	20374.605469	4790.834473	18.429148
477.219025	1227.086426	20675.162109	4833.771484	18.545202
477.573822	1188.669312	20977.980469	4982.919922	19.173233
477.928619	1213.527466	21683.046875	5170.485352	19.330976
478.283325	1222.566772	21696.605469	5175.005371	19.304634
478.638000	1168.330933	21994.902344	5414.546875	20.388453
478.992676	1186.409546	22458.166016	5672.167480	21.087858
479.347260	1453.069214	22903.353516	5904.929688	20.754318
479.701843	1249.684692	23086.398438	5633.750000	20.076582
480.056366	1184.149658	23081.878906	5968.204590	21.847265
480.410858	1281.322266	23811.802734	6087.975586	21.334003
480.765320	1251.944458	24220.832031	6268.761719	21.841797
481.119751	1274.542725	25007.251953	6487.964844	21.967243
481.474091	1204.488159	26186.882813	6698.128906	21.990047
481.828430	1188.669312	27680.628906	7093.599121	22.289516
482.182709	1258.723999	29239.910156	7635.957520	22.791147
482.536987	1283.582031	31205.958984	8155.717773	22.966543
482.891174	1254.204346	34148.253906	8948.916992	23.392416
483.245361	1190.929199	38288.257813	9983.917969	23.702484
483.599518	1238.385498	44403.351563	11746.583984	24.344276
483.953644	1231.606079	49738.804688	12869.717773	23.992544
484.307678	1242.905151	53241.539063	14126.182617	24.776184
484.661713	1202.228271	55250.523438	15079.830078	25.676298
485.015686	1242.905151	56247.109375	15689.983398	26.265408
485.369659	1175.110352	55659.554688	15547.614258	26.379095
485.723572	1254.204346	53661.867188	14842.547852	25.928162
486.077423	1202.228271	51004.308594	13843.704102	25.383429
486.431274	1193.188965	48538.835938	13493.430664	25.979668
486.785034	1270.023071	47097.066406	13342.022461	26.342522
487.138794	1125.394165	46247.371094	13068.583008	26.468674
487.492523	1285.841919	47140.003906	13796.248047	27.283033
487.846191	1242.905151	48152.406250	13970.253906	27.131708
488.199829	1247.424805	48421.328125	14241.433594	27.544910
488.553436	1288.101685	48963.683594	14191.717773	27.065462
488.906982	1211.267578	48127.546875	14388.322266	28.086315
489.260529	1197.708618	46941.140625	13866.301758	27.694889
489.613983	1249.684692	45314.062500	13346.541992	27.452690
489.967438	1263.243652	42927.683594	12942.033203	28.030590
490.320831	1256.464111	41115.304688	12358.997070	27.854631
490.674194	1236.125732	40310.804688	12533.003906	28.910994
491.027527	1168.330933	40114.199219	12607.578125	29.372171
491.380798	1199.968506	41099.484375	12666.333984	28.738106
491.734070	1238.385498	42839.550781	13283.266602	28.953230
492.087250	1258.723999	43671.167969	13488.911133	28.836317
492.440430	1267.763306	43757.042969	13895.679688	29.720240
492.793549	1227.086426	43354.792969	13701.334961	29.610556
493.146637	1195.448853	42602.269531	13531.847656	29.793156
493.499695	1166.071045	39998.949219	12792.883789	29.940639
493.852692	1195.448853	37339.132813	12293.461914	30.705261
494.205658	1231.606079	35074.785156	11601.955078	30.642359
494.558594	1218.047119	32988.964844	10908.187500	30.500034
494.911499	1274.542725	30663.601563	10442.663086	31.195692
495.264374	1274.542725	29416.175781	10056.232422	31.205330
495.617188	1292.621338	28392.474609	10112.728516	32.546700
495.969940	1202.228271	28469.308594	9837.029297	31.667494
496.322693	1170.590698	27834.296875	9651.723633	31.807777
496.675385	1292.621338	27931.468750	9809.912109	31.973196
497.028015	1358.156372	28500.945313	9936.461914	31.604362
497.380676	1270.023071	28595.859375	9814.431641	31.268606
497.733246	1227.086426	28311.121094	9959.060547	32.240303
498.085785	1841.759521	29391.318359	10738.701172	32.294315
498.438263	1256.464111	28419.591797	9889.005859	31.780369
498.790710	1263.243652	28274.962891	9672.062500	31.130260
499.143158	1292.621338	27664.810547	9776.014648	32.167953
499.495544	1251.944458	27310.017578	9622.345703	32.122105
499.847870	1086.977051	27226.402344	9305.969727	31.442896
500.200165	1209.007813	26241.119141	9256.253906	32.147694
500.552429	1154.771851	26143.945313	9425.741211	33.098213
500.904663	1229.346191	25278.431641	8946.657227	32.089832
501.256866	1166.071045	25563.169922	9041.570313	32.280472
501.609009	1294.881226	24679.578125	8867.563477	32.383068
501.961090	1215.787231	24329.304688	8896.941406	33.232304
502.313171	1224.826538	24618.562500	8804.288086	32.399532
502.665253	1168.330933	24223.091797	8341.023438	31.111544
503.017181	1242.905151	24087.501953	8576.045898	32.100109
503.369110	1163.811279	24141.738281	8524.069336	32.031860
503.721069	1265.503418	24195.974609	8646.100586	32.186855
504.072937	1238.385498	24652.458984	8616.722656	31.512402
504.424774	1281.322266	24338.343750	8695.816406	32.157207
504.776520	1245.165039	24324.785156	8433.676758	31.146576
505.128265	1218.047119	24507.830078	8537.628906	31.428297
505.480042	1292.621338	24354.162109	8562.487305	31.523766
505.831665	1270.023071	24550.767578	8444.975586	30.819258
506.183289	1134.433472	23918.015625	8363.622070	31.729815
506.534882	1254.204346	24216.312500	8320.685547	30.774534
506.886505	1227.086426	23913.496094	8248.371094	30.949299
507.237946	1143.472778	24089.761719	8255.150391	30.992714
507.589417	1163.811279	24003.888672	8169.276855	30.671812
507.940857	1337.817993	24060.384766	8526.329102	31.636000
508.292297	1247.424805	24302.185547	8284.528320	30.523428
508.643616	1242.905151	24401.619141	8429.157227	31.030443
508.994904	1245.165039	24751.892578	8352.323242	30.234571
509.346191	1308.440186	24792.568359	8526.329102	30.735178
509.697479	1199.968506	25007.251953	8438.196289	30.403418
510.048645	1143.472778	25407.242188	8607.683594	30.762783
510.399780	1258.723999	25470.517578	8634.801758	30.464813
510.750916	1265.503418	25825.310547	8632.541016	29.996317
511.102051	1204.488159	25967.679688	8352.323242	28.864758
511.453033	1204.488159	26026.435547	8693.556641	30.171156
511.804016	1247.424805	26315.693359	8562.487305	29.180565
512.154968	1166.071045	26595.912109	8741.013672	29.787611
512.505920	1231.606079	26738.281250	8634.801758	29.024542
512.856750	1206.747925	26627.548828	8594.124023	29.060360
513.207581	1308.440186	26514.556641	8731.973633	29.451317
513.558411	1263.243652	26510.037109	8530.849609	28.786255
513.909180	1242.905151	26388.007813	8686.777344	29.603664
514.259888	1227.086426	26507.777344	8517.290039	28.837042
514.610535	1229.346191	26039.994141	8302.606445	28.508970
514.961182	1179.630005	25809.490234	8218.993164	28.580606
515.311829	1258.723999	25759.775391	8074.364258	27.817747
515.662354	1355.896606	25888.585938	8241.590820	28.067425
516.012878	1197.708618	26098.750000	8099.222168	27.715763
516.363281	1125.394165	26295.353516	8388.480469	28.856171
516.713745	1168.330933	26202.701172	8243.851563	28.263224
517.064209	1222.566772	26733.759766	8386.220703	28.080435
517.414490	1242.905151	27011.718750	8557.966797	28.387264
517.764832	1199.968506	27922.429688	8548.927734	27.501057
518.115173	1150.252197	28912.234375	8741.013672	27.342289
518.465393	1260.983765	29967.574219	8878.862305	26.537037
518.815552	1184.149658	30566.427734	9292.411133	27.595757
519.165710	1303.920532	31359.626953	9373.764648	26.849625
519.515869	1168.330933	31034.212891	9389.583984	27.527239
519.865967	1240.645386	31481.658203	9527.433594	27.402481
520.216003	1263.243652	30842.126953	9263.033203	27.045610
520.565918	1245.165039	30575.466797	9183.939453	27.066801
520.915955	1199.968506	29522.388672	8987.333984	27.495409
521.265869	1240.645386	29151.775391	8689.037109	26.686098
521.615723	1193.188965	28575.519531	8551.187500	26.871338
521.965576	1310.700073	28584.558594	8618.982422	26.795923
522.315369	1229.346191	27933.728516	8569.266602	27.485826
522.665161	1154.771851	27642.210938	8347.802734	27.156384
523.014832	1242.905151	27847.855469	8505.991211	27.299753
523.364502	1254.204346	27997.003906	8519.549805	27.167484
523.714172	1199.968506	28168.751953	8408.818359	26.730349
524.063782	1285.841919	28824.101563	8614.462891	26.612507
524.413330	1199.968506	28844.439453	8544.408203	26.567480
524.762817	1249.684692	30012.771484	8806.547852	26.272783
525.112366	1294.881226	30772.072266	9095.805664	26.464273
525.461792	1181.889893	32679.367188	9653.983398	26.897690
525.811157	1353.636719	33400.253906	9493.536133	25.400183
526.160522	1109.575317	35361.781250	10008.776367	25.981396
526.509827	1324.259033	35777.589844	10257.357422	25.928112
526.859131	1138.953125	37504.097656	10451.703125	25.609001
527.208313	1204.488159	39382.015625	10835.873047	25.227890
527.557495	1346.857300	40498.371094	11272.020508	25.350649
527.906738	1197.708618	43241.800781	12042.621094	25.794140
528.255859	1181.889893	46900.460938	12912.655273	25.658646
528.604919	1202.228271	50638.218750	13771.389648	25.425121
528.953918	1204.488159	53096.910156	14632.383789	25.876410
529.302917	1288.101685	54091.234375	15267.395508	26.474365
529.651917	1358.156372	54606.472656	15393.945313	26.359123
530.000793	1202.228271	54036.996094	15097.908203	26.300257
530.349609	1270.023071	52416.703125	14426.739258	25.723499
530.698547	1260.983765	50003.207031	13721.672852	25.564466
531.047302	1392.053833	46394.261719	12919.434570	25.615145
531.396057	1358.156372	44249.683594	12264.083984	25.426765
531.744751	1199.968506	41971.777344	11455.066406	25.152422
532.093445	1193.188965	40710.792969	11330.775391	25.653341
532.442139	1308.440186	39822.683594	11032.478516	25.247902
532.790710	1258.723999	39924.375000	11181.626953	25.663355
533.139160	1218.047119	41293.828125	11269.760742	25.081766
533.487732	1231.606079	41879.125000	11638.112305	25.601822
533.836243	1285.841919	42755.937500	11601.955078	24.876030
534.184631	1145.732544	43058.753906	11545.458984	24.812639
534.533020	1202.228271	42798.875000	11610.994141	25.023087
534.881348	1218.047119	41264.453125	11061.856445	24.581007
535.229736	1184.149658	40010.246094	11030.218750	25.359409
535.577942	1267.763306	38295.039063	10555.654297	25.083914
535.926086	1328.778687	37302.972656	10508.198242	25.516680
536.274353	1195.448853	36509.773438	10166.964844	25.404749
536.622498	1245.165039	36451.019531	10124.027344	25.219845
536.970642	1308.440186	36604.687500	10144.366211	25.033613
537.318665	1179.630005	35766.292969	9902.564453	25.220514
537.666687	1195.448853	35721.093750	10038.154297	25.611992
538.014709	1240.645386	34699.652344	9595.228516	24.969608
538.362610	1238.385498	34234.128906	9366.985352	24.635298
538.710510	1184.149658	33169.750000	9326.308594	25.455704
539.058411	1215.787231	32073.732422	9009.932617	25.258148
539.406250	1213.527466	31700.861328	9014.452148	25.587429
539.753967	1204.488159	31727.980469	9082.247070	25.808838
540.101746	1274.542725	32161.867188	9131.963867	25.438982
540.449463	1179.630005	33786.683594	9482.236328	25.462610
540.797119	1274.542725	35926.738281	10049.453125	25.322811
541.144714	1270.023071	38150.410156	10627.969727	25.373775
541.492249	1206.747925	40358.261719	11190.666016	25.500719
541.839844	1240.645386	42001.156250	11572.577148	25.347895
542.187378	1288.101685	43395.468750	11780.481445	24.918158
542.534790	1233.865845	43472.304688	12114.935547	25.761061
542.882202	1233.865845	43187.566406	11721.725586	24.998652
543.229553	1159.291626	41809.070313	11656.190430	25.822769
543.576965	1245.165039	40200.074219	11190.666016	25.530802
543.924194	1231.606079	38245.324219	10641.528320	25.422794
544.271423	1256.464111	36631.804688	10505.938477	26.146673
544.618652	1242.905151	35058.964844	10035.894531	26.002407
544.965881	1324.259033	33736.964844	9782.793945	26.096357
545.312988	1161.551392	32164.126953	9412.181641	26.612724
545.660034	1310.700073	31481.658203	9220.096680	26.215263
546.007141	1301.660645	30530.271484	9192.978516	26.998608
546.354126	1186.409546	29908.818359	9093.545898	27.529503
546.701111	1202.228271	29879.441406	8926.319336	26.934593
547.048035	1272.282959	29929.156250	8953.436523	26.803879
547.394836	1204.488159	29635.378906	8955.697266	27.263334
547.741699	1197.708618	28627.496094	8802.028320	27.722855
548.088562	1254.204346	28647.833984	8790.729492	27.511965
548.435303	1190.929199	27874.972656	8661.918945	27.997969
548.781921	1204.488159	26894.208984	8587.344727	28.738562
549.128662	1215.787231	26055.812500	8298.086914	28.511644
549.475342	1215.787231	25267.132813	8302.606445	29.465376
549.821899	1249.684692	24469.414063	7959.112793	28.895378
550.168457	1285.841919	24130.439453	7999.789551	29.389652
550.515015	1337.817993	23176.792969	7990.750488	30.463575
550.861511	1254.204346	22810.699219	7855.160645	30.621658
551.207886	1288.101685	22098.853516	7751.208496	31.056576
551.554260	1288.101685	22275.121094	7986.230957	31.915583
551.900635	1220.306885	22010.720703	7902.617188	32.141304
552.247009	1188.669312	22069.476563	7859.680664	31.948053
552.593262	1249.684692	22135.011719	8142.158691	33.001514
552.939392	1310.700073	22284.160156	8282.268555	33.239952
553.285645	1229.346191	22553.080078	8157.977539	32.492580
553.631775	1224.826538	22412.970703	8234.811523	33.084469
553.977905	1177.370239	21857.052734	8234.811523	34.127419
554.323975	1260.983765	21965.523438	8304.866211	34.020958
554.669983	1213.527466	21983.603516	8494.692383	35.056034
555.015991	1163.811279	21572.314453	8237.071289	34.658394
555.361877	1163.811279	21418.646484	8607.683594	36.751087
555.707825	1188.669312	21050.294922	8316.166016	35.885769
556.053711	1197.708618	20577.990234	8302.606445	36.660450
556.399536	1258.723999	20340.708984	8404.298828	37.446705
556.745239	1166.071045	20374.605469	8454.014648	37.941174
557.091003	1199.968506	20015.292969	8438.196289	38.469852
557.436707	1245.165039	20019.812500	8659.659180	39.492054
557.782410	1229.346191	19680.837891	8553.447266	39.693813
558.127991	1238.385498	19710.216797	8695.816406	40.371906
558.473511	1231.606079	19875.183594	8777.170898	40.472729
558.819092	1190.929199	19341.865234	8768.130859	41.745514
559.164612	1202.228271	19093.283203	8903.720703	43.046608
559.510010	1215.787231	19113.621094	9109.365234	44.103539
559.855408	1163.811279	19389.320313	9052.869141	43.285801
560.200806	1206.747925	19231.132813	9195.238281	44.320461
560.546143	1150.252197	19206.275391	9333.087891	45.319149
560.891357	1254.204346	19172.376953	9572.629883	46.424522
561.236633	1272.282959	19287.628906	9626.865234	46.374809
561.581848	1181.889893	19538.468750	9760.195313	46.731506
561.927002	1204.488159	19244.691406	9979.398438	48.640862
562.272095	1233.865845	19533.949219	10108.208984	48.493454
562.617126	1247.424805	19606.263672	10069.791992	48.055145
562.962219	1279.062378	19298.927734	10356.790039	50.376225
563.307251	1288.101685	19398.359375	10530.796875	51.035690
563.652161	1227.086426	19443.556641	10664.126953	51.804993
563.997009	1272.282959	19124.921875	10673.166016	52.658226
564.341919	1303.920532	19075.205078	10842.653320	53.674973
564.686768	1218.047119	19427.738281	11025.699219	53.859520
565.031555	1227.086426	19488.753906	11364.672852	55.512924
565.376282	1364.935913	19848.066406	11873.134766	56.852917
565.721008	1229.346191	20024.332031	11875.394531	56.643024
566.065674	1166.071045	20381.384766	12126.235352	57.038692
566.410278	1233.865845	20679.681641	12121.714844	55.990700
566.754822	1145.732544	20803.972656	12758.986328	59.075756
567.099365	1170.590698	21258.199219	12664.074219	57.216782
567.443909	1188.669312	21407.347656	12867.458008	57.762379
567.788330	1254.204346	21133.908203	13199.653320	60.088669
568.132751	1224.826538	20813.011719	13152.196289	60.890633
568.477112	1161.551392	20469.517578	13190.614258	62.301033
568.821533	1190.929199	20295.511719	13540.886719	64.643951
569.165771	1272.282959	19992.695313	13877.601563	67.334618
569.510010	1186.409546	20358.787109	13746.531250	65.511551
569.854248	1288.101685	19841.287109	13884.380859	67.892815
570.198364	1251.944458	20022.072266	13925.057617	67.517464
570.542542	1220.306885	20268.394531	14401.881836	69.201569
570.886536	1222.566772	20026.591797	14510.353516	70.664589
571.230591	1166.071045	20629.966797	14844.807617	70.277481
571.574646	1147.992432	20487.597656	15206.379883	72.692215
571.918518	1209.007813	20706.800781	15576.992188	73.690315
572.262451	1254.204346	21515.818359	15990.540039	72.730316
572.606323	1258.723999	21316.953125	16223.302734	74.605690
572.950195	1199.968506	21454.802734	16340.813477	74.751762
573.293945	1188.669312	21201.703125	16616.511719	77.088982
573.637695	1179.630005	21122.609375	16709.166016	77.869690
573.981384	1209.007813	21122.609375	17000.683594	79.300949
574.325134	1303.920532	20880.806641	17199.548828	81.195892
574.668701	1197.708618	20609.626953	17145.312500	82.153671
575.012268	1195.448853	20514.714844	17242.484375	83.062347
575.355774	1138.953125	20519.234375	17265.082031	83.208954
575.699341	1193.188965	20365.566406	17832.298828	86.786888
576.042725	1315.219727	20480.818359	17845.859375	86.251633
576.386169	1256.464111	20336.189453	18184.832031	88.724380
576.729553	1249.684692	19893.261719	18214.210938	90.993942
577.072876	1383.014526	19640.162109	18291.044922	92.610474
577.416138	1236.125732	19219.833984	18270.707031	94.722298
577.759399	1249.684692	18966.732422	18239.068359	95.892860
578.102600	1132.173584	18514.767578	18528.326172	100.078003
578.445801	1152.512085	18031.164063	18582.562500	103.266838
578.788940	1152.512085	17952.070313	18747.529297	104.735001
579.131897	1240.645386	17658.292969	18865.041016	107.350311
579.474976	1242.905151	17330.617188	18874.080078	109.594055
579.817993	1209.007813	16923.849609	18930.576172	112.769623
580.160950	1195.448853	16519.339844	18917.017578	115.646667
580.503845	1231.606079	16510.300781	18941.875000	115.914810
580.846680	1202.228271	16225.562500	19359.943359	120.863419
581.189514	1242.905151	16426.687500	19253.730469	118.618835
581.532349	1285.841919	15995.059570	19213.054688	121.877403
581.875061	1159.291626	16105.791016	19513.611328	122.800133
582.217773	1220.306885	16182.625977	19707.957031	123.561394
582.560425	1324.259033	16053.815430	20175.740234	127.984032
582.903076	1256.464111	15717.100586	20150.882813	130.661041
583.245667	1175.110352	15529.535156	20096.646484	131.816742
583.588135	1188.669312	15870.769531	20446.919922	131.168213
583.930664	1270.023071	15667.384766	20403.984375	132.899078
584.273071	1159.291626	15491.118164	20620.927734	135.793137
584.615479	1245.165039	15337.450195	20394.943359	135.888382
584.957825	1247.424805	15586.031250	20853.689453	136.737595
585.300232	1215.787231	15308.072266	20975.720703	140.218094
585.642517	1188.669312	15289.993164	20962.160156	140.224350
585.984680	1251.944458	15436.882813	21436.724609	142.297256
586.326843	1254.204346	15233.498047	21506.779297	144.875519
586.669067	1301.660645	15253.835938	21267.238281	143.100098
587.011230	1265.503418	14978.137695	21493.220703	147.511520
587.353271	1238.385498	15181.521484	21845.753906	147.795807
587.695251	1161.551392	15138.584961	21933.886719	148.617630
588.037231	1222.566772	15097.908203	22006.201172	149.788269
588.379211	1209.007813	15253.835938	21951.964844	147.691071
588.721069	1254.204346	15253.835938	22349.695313	150.686035
589.062927	1213.527466	15393.945313	22629.914063	151.027893
589.404785	1328.778687	15470.780273	22810.699219	151.901550
589.746582	1163.811279	15491.118164	22812.958984	151.104111
590.088257	1238.385498	15518.236328	22620.875000	149.738892
590.429932	1220.306885	15796.195313	22975.667969	149.255814
590.771606	1206.747925	15680.943359	23319.162109	152.771286
591.113220	1233.865845	15771.336914	23237.806641	151.360184
591.454773	1369.455566	15766.817383	23240.066406	151.907074
591.796265	1247.424805	15586.031250	23212.949219	153.191483
592.137817	1279.062378	15321.630859	23547.404297	158.577408
592.479248	1177.370239	15174.742188	23206.169922	157.378098
592.820618	1181.889893	15283.213867	23276.224609	156.682693
593.161926	1175.110352	14973.618164	23000.525391	158.172272
593.503296	1249.684692	15154.404297	23441.191406	159.596924
593.844604	1215.787231	15163.443359	22923.691406	155.638367
594.185791	1281.322266	15208.639648	23029.902344	156.157715
594.526917	1249.684692	15466.259766	23321.421875	155.253540
594.868103	1265.503418	15473.040039	23660.394531	157.626831
595.209229	1267.763306	15633.487305	23432.152344	154.286621
595.550232	1308.440186	15703.541992	23866.039063	156.703308
595.891235	1213.527466	16051.555664	23739.488281	151.812363
596.232178	1227.086426	15997.319336	24322.525391	156.364761
596.573181	1342.337646	16449.285156	24044.566406	150.276749
596.914063	1254.204346	16736.283203	24763.191406	151.846436
597.254883	1233.865845	17285.421875	24765.451172	146.600037
597.595703	1258.723999	17233.445313	24772.230469	147.191956
597.936462	1213.527466	17346.437500	24835.505859	146.421066
598.277161	1218.047119	16969.044922	24903.300781	150.373032
598.617798	1224.826538	16487.703125	24189.195313	150.458984
598.958435	1199.968506	16306.916016	24033.267578	151.144363
599.299072	1254.204346	15954.382813	23667.173828	152.467316
599.639587	1279.062378	15572.471680	23438.931641	155.035568
599.980103	1247.424805	15120.506836	23188.091797	158.152802
600.320557	1308.440186	14957.798828	22799.400391	157.450333
600.661072	1179.630005	14722.777344	22880.753906	160.236923
601.001404	1202.228271	14390.582031	22494.324219	161.446198
601.341675	1279.062378	14508.093750	22467.207031	160.163986
601.681946	1222.566772	14275.331055	21965.523438	158.916199
602.022278	1181.889893	14460.636719	22360.994141	159.496246
602.362427	1157.031738	14381.542969	22015.240234	157.723846
602.702576	1213.527466	14709.217773	22370.033203	156.764908
603.042725	1181.889893	14957.798828	22417.490234	154.150253
603.382813	1281.322266	14880.964844	22819.738281	158.374863
603.722839	1256.464111	15511.457031	23176.792969	153.772980
604.062805	1326.518799	16001.838867	23140.634766	148.644897
604.402771	1385.274292	16535.158203	23529.324219	146.166473
604.742737	1290.361572	16505.781250	23728.189453	147.467682
605.082581	1231.606079	16831.195313	23411.814453	142.184570
605.422363	1229.346191	17258.302734	23764.347656	140.589325
605.762146	1184.149658	17185.988281	23490.908203	139.401215
606.101929	1222.566772	16980.343750	23038.943359	138.448318
606.441589	1206.747925	16573.576172	23029.902344	142.014694
606.781189	1265.503418	16191.665039	22697.708984	143.588181
607.120850	1218.047119	15687.723633	22329.357422	145.900360
607.460388	1166.071045	15425.583008	22083.035156	146.687805
607.799927	1215.787231	15258.356445	21811.855469	146.668808
608.139404	1215.787231	14740.855469	21536.156250	150.242264
608.478821	1247.424805	14910.342773	21339.552734	147.055908
608.818298	1231.606079	14840.288086	21466.101563	148.688141
609.157593	1260.983765	15030.113281	21337.292969	145.806656
609.496887	1251.944458	15186.041992	21477.402344	145.150818
609.836182	1163.811279	15495.637695	21612.992188	142.683716
610.175415	1190.929199	15552.133789	21777.958984	143.351685
610.514526	1328.778687	15567.952148	21486.441406	141.564835
610.853699	1206.747925	15427.842773	21057.074219	139.583679
611.192688	1186.409546	15238.017578	21163.285156	142.167892
611.531799	1132.173584	15073.049805	21057.074219	142.924301
611.870850	1195.448853	14851.586914	20627.707031	142.296875
612.209778	1227.086426	14304.708984	20352.007813	146.241577
612.548645	1229.346191	14130.702148	20302.291016	147.836761
612.887573	1233.865845	13945.396484	19723.775391	145.457779
613.226440	1281.322266	13529.587891	19292.148438	147.047974
613.565186	1231.606079	13348.801758	19014.189453	146.754944
613.903931	1267.763306	13253.888672	18785.947266	146.153854
614.242676	1175.110352	13075.362305	18862.781250	148.632751
614.581360	1297.140991	13027.906250	18650.357422	147.929108
614.919983	1179.630005	12786.104492	18632.279297	150.369934
615.258484	1276.802612	12754.466797	18639.058594	151.269943
615.597046	1213.527466	12612.097656	18573.523438	152.299774
615.935547	1233.865845	12447.130859	18067.322266	150.120926
616.273987	1152.512085	12548.822266	18383.697266	151.199677
616.612366	1340.077759	12616.617188	18103.478516	148.657318
616.950806	1222.566772	12756.726563	17992.748047	145.395782
617.289124	1303.920532	12449.390625	18148.675781	151.135452
617.627380	1254.204346	12607.578125	17911.394531	146.715759
617.965515	1274.542725	12720.569336	17961.109375	145.784805
618.303772	1283.582031	12600.798828	17879.755859	146.645370
618.641968	1242.905151	12420.012695	17850.378906	148.584732
618.980042	1184.149658	12478.768555	17671.851563	145.978378
619.318054	1231.606079	12623.397461	17439.089844	142.273361
619.656128	1199.968506	12575.940430	17746.425781	145.450928
619.994080	1199.968506	12422.272461	17470.726563	144.985901
620.331970	1251.944458	12451.650391	17472.986328	144.834534
620.669861	1310.700073	12187.250000	17154.351563	145.667984
621.007751	1242.905151	12356.737305	17016.501953	141.927612
621.345581	1233.865845	12304.761719	16905.769531	141.559494
621.683289	1281.322266	12266.344727	17066.218750	143.694717
622.020996	1204.488159	11979.345703	16731.763672	144.106552
622.358704	1206.747925	12164.652344	16763.400391	141.967407
622.696350	1260.983765	12040.361328	16442.505859	140.838577
623.033875	1294.881226	12114.935547	16718.205078	142.543869
623.371460	1202.228271	11927.370117	16607.472656	143.636749
623.708984	1263.243652	12081.038086	16485.443359	140.714432
624.046448	1220.306885	12133.014648	16388.269531	138.993576
624.383789	1184.149658	11965.787109	16218.783203	139.446655
624.721191	1240.645386	11999.684570	16379.230469	140.705734
625.058533	1152.512085	12153.352539	16141.948242	136.257187
625.395813	1150.252197	12133.014648	16013.138672	135.329224
625.733032	1254.204346	12297.981445	16024.437500	133.742584
626.070190	1229.346191	12401.933594	16270.758789	134.627823
626.407410	1403.352905	12505.885742	16465.103516	135.660492
626.744507	1324.259033	12598.539063	16374.710938	133.493683
627.081543	1247.424805	12851.639648	16334.034180	130.009735
627.418518	1175.110352	12964.630859	16108.050781	126.662834
627.755554	1195.448853	13021.126953	16345.333008	128.110062
628.092529	1285.841919	13068.583008	16288.837891	127.330269
628.429382	1195.448853	12928.473633	16191.665039	127.812019
628.766174	1378.494873	12772.545898	16187.145508	129.968262
629.103027	1290.361572	12679.892578	16024.437500	129.365082
629.439819	1229.346191	12413.233398	15525.015625	127.823807
629.776489	1346.857300	12277.643555	15332.930664	127.951210
630.113159	1199.968506	12160.132813	15224.458984	127.958763
630.449829	1321.999146	12180.470703	14937.460938	125.390221
630.786377	1209.007813	11687.828125	15097.908203	132.542603
631.122925	1396.573486	12022.283203	15000.735352	128.030624
631.459412	1333.298340	11552.238281	14616.565430	129.986755
631.795898	1202.228271	11543.199219	14657.242188	130.113647
632.132324	1249.684692	11385.011719	14444.818359	130.189514
632.468689	1315.219727	11339.815430	14419.959961	130.725876
632.804993	1211.267578	11125.130859	14135.221680	130.362442
633.141296	1215.787231	11186.146484	14110.363281	129.329102
633.477539	1265.503418	10890.109375	13882.121094	131.087112
633.813721	1247.424805	10944.344727	13891.160156	130.389191
634.149841	1245.165039	10957.904297	13692.295898	128.152634
634.485962	1274.542725	11113.832031	13852.743164	127.836472
634.822083	1283.582031	11104.792969	13807.546875	127.519562
635.158020	1306.180420	11149.989258	13708.114258	125.987144
635.494019	1220.306885	11048.296875	13213.211914	122.028053
635.829956	1281.322266	10754.519531	13583.824219	129.866425
636.165894	1143.472778	10840.392578	13036.945313	122.652069
636.501709	1190.929199	11091.234375	13154.456055	120.839989
636.837463	1134.433472	10562.434570	12937.512695	125.191750
637.173279	1211.267578	10286.735352	12973.669922	129.606567
637.509033	1251.944458	10386.167969	12865.198242	127.140022
637.844666	1152.512085	10212.161133	12465.208984	124.869041
638.180237	1229.346191	10162.444336	12734.128906	128.788284
638.515869	1213.527466	9959.060547	12178.210938	125.374672
638.851440	1197.708618	10031.375000	12090.078125	123.305199
639.186890	1270.023071	10013.295898	12189.509766	124.890152
639.522339	1224.826538	9599.748047	11927.370117	127.792763
639.857727	1220.306885	9724.038086	11699.127930	123.226158
640.193176	1326.518799	9760.195313	11870.874023	125.026794
640.528442	1240.645386	9608.787109	11735.285156	125.411835
640.863708	1175.110352	9608.787109	11559.018555	123.124329
641.198914	1184.149658	9310.490234	11314.957031	124.666290
641.534180	1229.346191	9432.520508	11403.089844	124.022049
641.869263	1229.346191	9276.592773	11098.013672	122.634094
642.204346	1179.630005	9168.121094	11084.454102	123.988670
642.539368	1224.826538	9192.978516	11143.209961	124.475334
642.874390	1199.968506	9165.860352	11046.037109	123.602844
643.209412	1195.448853	9192.978516	10926.266602	121.672791
643.544312	1276.802612	9077.727539	10718.362305	121.031288
643.879150	1297.140991	9278.852539	10693.503906	117.723663
644.213989	1288.101685	9018.971680	10537.576172	119.643387
644.548828	1319.739380	9109.365234	10675.425781	120.104439
644.883545	1213.527466	9059.648438	10630.229492	120.017296
645.218262	1233.865845	8876.602539	10273.176758	118.273216
645.552856	1238.385498	8817.847656	10379.388672	120.602264
645.887573	1251.944458	8971.515625	10469.781250	119.408661
646.222107	1263.243652	9005.413086	10295.774414	116.666672
646.556580	1138.953125	9147.782227	10370.348633	115.265236
646.891113	1190.929199	9028.011719	10300.293945	116.234138
647.225586	1260.983765	8960.216797	10363.569336	118.227180
647.559937	1222.566772	9147.782227	10196.341797	113.230682
647.894226	1163.811279	9009.932617	10255.097656	115.869820
648.228577	1310.700073	9138.743164	10499.159180	117.378754
648.562927	1184.149658	9023.491211	10185.042969	114.816956
648.897095	1236.125732	8964.736328	10214.420898	116.169586
649.231262	1211.267578	8994.114258	9968.099609	112.514511
649.565430	1222.566772	8917.279297	10031.375000	114.478722
649.899475	1184.149658	8863.043945	9764.714844	111.742195
650.233521	1247.424805	9102.585938	9902.564453	110.184113
650.567505	1188.669312	8905.980469	9866.407227	112.445099
650.901428	1229.346191	8933.098633	9818.951172	111.498978
651.235413	1215.787231	8985.074219	9742.117188	109.744049
651.569275	1177.370239	8978.294922	9721.778320	109.530708
651.903015	1342.337646	9168.121094	9737.597656	107.276924
652.236816	1220.306885	8966.996094	9642.684570	108.722290
652.570618	1267.763306	8822.367188	9622.345703	110.589279
652.904297	1310.700073	9043.830078	9509.354492	106.019867
653.237915	1213.527466	8770.390625	9459.638672	109.120819
653.571533	1209.007813	8702.595703	9421.221680	109.589882
653.905090	1247.424805	8637.061523	9391.843750	110.214066
654.238586	1229.346191	8580.565430	9138.743164	107.592995
654.572021	1188.669312	8499.211914	9064.168945	107.727974
654.905457	1240.645386	8530.849609	9177.160156	108.865463
655.238892	1247.424805	8449.495117	8887.902344	106.087242
655.572144	1303.920532	8424.637695	8946.657227	107.330994
655.905457	1170.590698	8203.173828	9100.326172	112.757080
656.238708	1231.606079	8311.645508	8860.784180	107.756149
656.571960	1220.306885	8478.873047	8858.524414	105.230392
656.905090	1111.835205	8424.637695	8670.958984	103.368355
657.238159	1193.188965	8435.936523	8689.037109	103.494537
657.571289	1326.518799	8691.296875	8944.397461	103.436638
657.904358	1195.448853	8487.912109	8831.406250	104.710258
658.237305	1213.527466	8557.966797	8930.838867	105.076927
658.570190	1181.889893	8679.998047	9077.727539	105.304398
658.903076	1141.212891	8813.328125	8937.618164	101.620026
659.236023	1256.464111	9244.955078	9211.057617	99.575668
659.568787	1193.188965	9253.994141	9281.112305	100.336418
659.901428	1321.999146	9335.347656	9342.126953	100.084602
660.234192	1209.007813	9394.103516	9599.748047	102.512428
660.566895	1227.086426	9428.000977	9326.308594	98.759995
660.899536	1328.778687	9362.465820	9441.559570	100.984528
661.232056	1249.684692	9382.804688	9437.040039	100.666847
661.564636	1229.346191	9138.743164	9030.271484	98.628571
661.897156	1195.448853	8994.114258	8951.176758	99.449425
662.229553	1288.101685	8835.925781	8865.303711	100.389221
662.561951	1297.140991	8750.052734	8652.879883	98.696175
662.894287	1353.636719	8815.587891	8542.148438	96.335548
663.226685	1186.409546	8336.503906	8280.008789	99.209869
663.558899	1283.582031	8280.008789	8164.757324	98.352707
663.891052	1263.243652	7952.333496	8126.340332	102.601357
664.223328	1231.606079	8313.906250	8250.630859	99.106567
664.555420	1233.865845	7898.097656	8119.560547	103.323158
664.887512	1209.007813	7798.665039	7690.193359	98.353912
665.219543	1254.204346	7943.293945	7961.372559	100.270264
665.551575	1270.023071	7839.341797	7764.767578	98.864807
665.883545	1190.929199	7796.405273	7721.831055	98.871025
666.215454	1204.488159	7504.887695	7730.870117	103.586792
666.547302	1136.693237	7441.612305	7654.036133	103.369179
666.879150	1249.684692	7787.365723	7520.706055	95.921188
667.210938	1267.763306	7721.831055	7561.383301	97.514008
667.542664	1247.424805	7735.390137	7622.398438	98.258438
667.874268	1281.322266	7565.902832	7656.295898	101.438332
668.205994	1265.503418	7647.256836	7498.107910	97.662888
668.537537	1265.503418	7748.948730	7428.053223	95.050537
668.869080	1263.243652	7647.256836	7364.778320	95.575218
669.200562	1247.424805	7554.603516	7398.675781	97.527771
669.532043	1211.267578	7586.241211	7455.171387	97.943993
669.863525	1238.385498	7536.524902	7403.195313	97.883026
670.194824	1202.228271	7586.241211	7319.581543	95.823013
670.526184	1213.527466	7746.688965	7276.645020	92.805260
670.857483	1209.007813	7532.005371	7296.983398	96.283058
671.188660	1270.023071	7674.374512	7245.007324	93.295692
671.519897	1270.023071	7419.014160	7208.850098	96.582138
671.851013	1281.322266	7441.612305	7156.874023	95.377846
672.182129	1256.464111	7394.155762	7170.433105	96.354935
672.513184	1175.110352	7217.889160	6933.150879	95.287956
672.844238	1367.195679	7552.343750	7226.928711	94.738770
673.175171	1218.047119	7491.328613	7034.843262	92.723343
673.506104	1290.361572	7495.848145	6976.087891	91.624191
673.836975	1333.298340	7319.581543	6786.262207	91.090981
674.167786	1147.992432	7177.212402	6978.347656	96.701660
674.498596	1199.968506	7208.850098	6686.830078	91.312515
674.829407	1163.811279	7211.109863	6702.648926	91.591934
675.160034	1247.424805	7215.629395	6795.301758	92.957214
675.490723	1215.787231	7134.275879	6894.733887	95.952652
675.821289	1125.394165	6994.166504	6535.421387	92.183289
676.151917	1274.542725	6926.371582	6686.830078	95.761688
676.482422	1288.101685	6858.576660	6625.814453	95.821503
676.812927	1157.031738	7041.623047	6512.823242	91.013824
677.143311	1301.660645	7098.118652	6684.570313	92.865501
677.473694	1231.606079	7132.016113	6417.910645	87.897362
677.804016	1116.354858	6899.253906	6573.838379	94.372795
678.134338	1190.929199	6985.126953	6510.563477	91.809677
678.464539	1288.101685	6881.175293	6648.412598	95.838379
678.794800	1249.684692	7071.000488	6567.059082	91.343170
679.124878	1267.763306	7193.031250	6641.633301	90.694130
679.455078	1166.071045	7186.251953	6686.830078	91.704201
679.785095	1242.905151	7292.463867	6933.150879	94.060509
680.115173	1206.747925	7188.511719	6745.585449	92.595390
680.445129	1224.826538	7387.376465	6784.002441	90.209023
680.775024	1292.621338	7473.250000	6865.356445	90.164536
681.104919	1256.464111	7532.005371	6878.915039	89.593094
681.434814	1195.448853	7409.974609	6851.797363	91.018181
681.764526	1206.747925	7624.658203	6881.175293	88.415497
682.094360	1181.889893	7721.831055	6971.568359	88.527992
682.424011	1369.455566	7611.099609	6971.568359	89.753799
682.753723	1251.944458	7518.446289	6885.694824	89.902634
683.083313	1229.346191	7448.391602	6661.971680	87.354652
683.412903	1179.630005	7486.809082	6639.373535	86.563950
683.742432	1186.409546	7256.306641	6555.759766	88.458672
684.071899	1358.156372	7398.675781	6503.783691	85.185181
684.401306	1188.669312	7245.007324	6508.303711	87.835823
684.730713	1213.527466	7003.205566	6334.296875	88.446533
685.060059	1177.370239	7143.314941	6388.532715	87.348488
685.389404	1190.929199	6811.120605	6307.178711	91.033371
685.718628	1260.983765	6817.899902	6176.108887	88.450592
686.047852	1229.346191	6881.175293	6006.621582	84.526184
686.376953	1238.385498	6973.828125	6110.573730	84.948784
686.706116	1249.684692	6619.035156	6042.778809	89.267670
687.035156	1270.023071	6808.860840	6022.440430	85.801704
687.364197	1303.920532	6948.969727	6067.637207	84.387512
687.693176	1249.684692	6750.104980	6074.416504	87.715691
688.022156	1272.282959	6777.223145	6160.290039	88.793091
688.351013	1190.929199	6824.679199	6011.141602	85.559570
688.679871	1220.306885	6686.830078	5999.842285	87.432816
689.008606	1157.031738	6722.987305	6017.920898	87.332520
689.337402	1242.905151	6612.255371	5956.905762	87.794617
689.666138	1202.228271	6716.207520	5837.134766	84.057373
689.994751	1188.669312	6551.240234	5681.206543	83.775810
690.323364	1229.346191	6551.240234	5660.868164	83.269638
690.651917	1213.527466	6257.462891	5654.088867	88.037636
690.980469	1310.700073	6354.635254	5780.639160	88.620071
691.308960	1290.361572	6433.729004	5681.206543	85.369072
691.637451	1242.905151	6128.652344	5611.151855	89.407959
691.965759	1290.361572	6101.534668	5516.239258	87.834671
692.294128	1195.448853	6198.707031	5434.885254	84.733513
692.622437	1224.826538	6103.794434	5457.483887	86.753128
692.950684	1326.518799	6047.298828	5513.979492	88.702728
693.278870	1324.259033	6056.337891	5301.555664	84.049667
693.607117	1222.566772	5907.189453	5195.343750	84.804634
693.935120	1236.125732	5791.937988	5220.201660	87.450394
694.263245	1254.204346	5803.237305	5066.533691	83.805267
694.591248	1283.582031	5828.095215	5231.500977	86.872208
694.919250	1256.464111	5776.119141	5229.241211	87.900002
695.247192	1209.007813	5857.473145	5109.470215	83.908607
695.575073	1319.739380	5814.536621	5093.651367	83.961784
695.902893	1240.645386	5715.104004	5100.431152	86.262634
696.230774	1231.606079	5771.599609	5163.706055	86.610252
696.558411	1254.204346	5821.315918	5260.878906	87.728859
696.886169	1209.007813	5742.222168	5181.784668	87.637085
697.213806	1175.110352	5816.796387	5238.280273	87.536507
697.541443	1265.503418	6008.881836	5319.634277	85.469269
697.869019	1123.134277	5929.787598	5448.444336	89.985893
698.196533	1224.826538	6363.674805	5536.577637	83.905006
698.524048	1247.424805	6499.264160	5615.671387	83.175552
698.851501	1331.038452	6521.862305	5825.835449	86.591209
699.178772	1249.684692	6761.404297	5685.726074	80.483803
699.506226	1251.944458	6869.875977	5938.827148	83.427193
699.833435	1337.817993	6890.214355	5990.803223	83.801392
700.160767	1213.527466	6964.788574	5979.503906	82.868370
700.487915	1152.512085	6924.111816	6045.039063	84.768990
700.815063	1190.929199	6605.476074	5832.615234	85.726212
701.142151	1147.992432	6569.318848	5595.333008	82.034187
701.469238	1209.007813	6478.925781	5676.687012	84.777016
701.796265	1242.905151	6417.910645	5394.208496	80.218338
702.123230	1315.219727	6212.266113	5378.389648	82.971848
702.450134	1233.865845	5965.944824	5312.854492	86.198662
702.777039	1310.700073	5889.110840	5107.210449	82.922012
703.103882	1251.944458	5755.780762	5059.753906	84.545914
703.430664	1272.282959	5678.946777	4820.212402	80.512817
703.757385	1215.787231	5561.435547	4747.897949	81.279259
704.084106	1204.488159	5272.177734	4723.039551	86.500000
704.410767	1125.394165	5195.343750	4628.126953	86.063293
704.737366	1152.512085	5100.431152	4664.284180	88.952484
705.063904	1385.274292	5513.979492	4754.677246	81.609192
705.390442	1256.464111	5089.131836	4530.954590	85.436325
705.716919	1199.968506	5233.760742	4596.489258	84.201675
706.043396	1247.424805	5226.981445	4438.301270	80.181709
706.369690	1249.684692	5193.083984	4467.679199	81.604584
706.696106	1308.440186	5163.706055	4506.096191	82.942558
707.022278	1292.621338	5095.911133	4379.545898	81.164589
707.348633	1215.787231	5041.675293	4390.845215	82.988785
707.674805	1251.944458	5055.234375	4465.419434	84.491982
708.000916	1184.149658	5143.367676	4442.821289	82.305939
708.327026	1249.684692	5016.817383	4356.947754	82.483505
708.653076	1224.826538	5145.627441	4345.648438	79.596542
708.979065	1229.346191	5136.588379	4347.908203	79.814911
709.305054	1224.826538	5068.793457	4377.286133	82.010582
709.630920	1247.424805	5202.123047	4476.718262	81.657143
709.956787	1132.173584	5123.029297	4458.639648	83.352203
710.282593	1199.968506	5371.610352	4508.355957	79.306610
710.608459	1170.590698	5265.398438	4560.332031	82.781456
710.934082	1193.188965	5380.649414	4424.742676	77.172157
711.259827	1233.865845	5254.099121	4589.709961	83.473869
711.585449	1143.472778	5382.909180	4607.788574	81.716423
711.911072	1202.228271	5534.317871	4666.543945	79.968697
712.236572	1179.630005	5367.090820	4673.323730	83.432274
712.562073	1181.889893	5459.743652	4741.118164	83.201263
712.887512	1215.787231	5387.429199	4524.174805	79.306602
713.213013	1224.826538	5428.105957	4691.402344	82.473122
713.538330	1218.047119	5369.350586	4646.205566	82.580284
713.863647	1179.630005	5217.941895	4510.615723	82.484612
714.188904	1202.228271	5204.382813	4499.316895	82.382843
714.514099	1211.267578	5240.540039	4567.111816	83.286606
714.839294	1249.684692	5231.500977	4411.183594	79.398415
715.164490	1301.660645	5238.280273	4485.757813	80.884041
715.489502	1303.920532	5066.533691	4512.875977	85.285286
715.814575	1242.905151	5233.760742	4438.301270	80.067947
716.139526	1308.440186	5403.248047	4429.262207	76.214127
716.464539	1233.865845	5127.548828	4354.687988	80.150902
716.789368	1188.669312	4982.919922	4246.216309	80.583687
717.114258	1292.621338	5068.793457	4338.869141	80.670258
717.439026	1202.228271	5034.895996	4436.041504	84.374992
717.763794	1168.330933	4962.581543	4248.476074	81.179276
718.088440	1150.252197	4924.164551	4115.145996	78.562866
718.413208	1209.007813	4860.889160	4063.170166	78.155945
718.737793	1256.464111	4928.684082	4049.611084	76.061539
719.062378	1290.361572	4878.967773	4011.194092	75.818642
719.386841	1209.007813	4718.520020	4060.910156	81.262070
719.711304	1188.669312	4646.205566	3986.335938	80.915031
720.035767	1204.488159	4621.347656	3947.918945	80.291000
720.360168	1249.684692	4533.214355	3895.942871	80.591881
720.684570	1195.448853	4571.631348	3830.407715	78.045509
721.008789	1321.999146	4571.631348	3850.746338	77.816406
721.333069	1335.558105	4417.962891	3830.407715	80.938416
721.657227	1195.448853	4393.104980	3839.447021	82.685501
721.981445	1270.023071	4304.971680	3801.030029	83.395370
722.305481	1251.944458	4377.286133	3683.519043	77.801880
722.629578	1227.086426	4280.113281	3683.519043	80.458923
722.953552	1242.905151	4375.026367	3746.794189	79.942284
723.277588	1306.180420	4284.633301	3769.392578	82.701065
723.601440	1204.488159	4316.270508	3685.778809	79.738564
723.925354	1294.881226	4266.554688	3692.558350	80.684418
724.249146	1283.582031	4356.947754	3692.558350	78.382355
724.572937	1312.959839	4239.436523	3547.929443	76.370667
724.896667	1238.385498	4232.657227	3776.171875	84.754715
725.220398	1247.424805	4232.657227	3579.566895	78.122627
725.543945	1256.464111	4262.034668	3525.331055	75.488724
725.867615	1227.086426	4164.862305	3615.724121	81.307693
726.191101	1233.865845	4234.916992	3613.464355	79.292168
726.514648	1319.739380	4212.318848	3737.754883	83.593742
726.838074	1224.826538	4323.050293	3791.990723	82.859222
727.161499	1240.645386	4295.932129	3674.479736	79.659775
727.484863	1245.165039	4395.364746	3760.353027	79.842178
727.808228	1267.763306	4429.262207	3864.305176	82.130089
728.131470	1163.811279	4370.506836	3782.951416	81.677231
728.454712	1245.165039	4384.065430	3846.226563	82.865372
728.777832	1258.723999	4361.467285	3877.864258	84.413696
729.101013	1190.929199	4406.664063	3816.848877	81.658463
729.424011	1270.023071	4515.135742	3891.423096	80.779930
729.747070	1258.723999	4549.033203	3898.202637	80.219772
730.070068	1240.645386	4485.757813	3794.250488	78.690804
730.393005	1263.243652	4512.875977	3868.824951	80.180801
730.715881	1179.630005	4356.947754	3798.770264	82.432426
731.038757	1222.566772	4363.727051	3701.597656	78.920868
731.361572	1159.291626	4402.144043	3678.999268	77.700340
731.684326	1199.968506	4440.561035	3796.510498	80.125534
732.007019	1254.204346	4553.552734	3810.069336	77.465752
732.329712	1333.298340	4440.561035	3830.407715	80.363640
732.652283	1231.606079	4573.891113	3843.966797	78.160919
732.974854	1254.204346	4524.174805	3823.628418	78.576370
733.297363	1218.047119	4560.332031	3914.021484	80.662613
733.619873	1193.188965	4639.426270	3740.014648	73.901634
733.942261	1249.684692	4469.938965	3697.077881	75.999992
734.264648	1249.684692	4503.836426	3737.754883	76.458336
734.586975	1211.267578	4271.074219	3778.431885	83.899559
734.909302	1227.086426	4304.971680	3676.739502	79.588837
735.231506	1211.267578	4327.569824	3617.984131	77.229881
735.553711	1186.409546	4234.916992	3529.850830	76.871765
735.875854	1270.023071	4433.781738	3640.582275	74.928566
736.197937	1157.031738	4119.665527	3486.914063	78.642265
736.519958	1152.512085	4108.366699	3489.173828	79.051987
736.841980	1179.630005	4103.847168	3504.992676	79.520859
737.163940	1229.346191	4092.547852	3385.221680	75.295967
737.485840	1206.747925	4072.209473	3471.095215	79.022079
737.807678	1218.047119	4051.870850	3301.608154	73.524719
738.129517	1172.850586	3936.619629	3358.103760	79.067863
738.451233	1288.101685	4072.209473	3552.448975	81.331154
738.773010	1213.527466	4176.161621	3416.859375	74.370705
739.094666	1249.684692	4142.264160	3419.119141	74.999992
739.416260	1301.660645	4112.886230	3597.645508	81.672028
739.737854	1256.464111	4219.098145	3577.307129	78.337151
740.059448	1229.346191	4085.768311	3541.149902	80.933548
740.380859	1175.110352	4042.831543	3577.307129	83.766747
740.702332	1166.071045	4063.170166	3475.614990	79.719193
741.023682	1245.165039	4146.783691	3385.221680	73.753891
741.345032	1249.684692	4047.351318	3398.780762	76.817451
741.666321	1260.983765	4047.351318	3428.158447	77.777779
741.987549	1206.747925	4065.429932	3378.442383	75.968376
742.308777	1175.110352	3929.840332	3251.891846	75.389656
742.629944	1229.346191	3918.541016	3364.883301	79.411766
742.950989	1349.117065	3850.746338	3328.726074	79.132782
743.272095	1265.503418	3728.715576	3138.900635	76.055046
743.593140	1292.621338	3735.495117	3220.254395	78.908417
743.914063	1179.630005	3710.636963	3102.743408	75.982147
744.234985	1179.630005	3685.778809	3179.577393	79.801620
744.555847	1209.007813	3631.542969	3046.247559	75.839546
744.876648	1247.424805	3536.630127	3193.136475	84.995071
745.197449	1193.188965	3545.669434	3053.027100	79.058601
745.518188	1263.243652	3620.243896	3134.380859	79.386383
745.838867	1163.811279	3667.700195	3066.586182	75.992783
746.159485	1274.542725	3642.842041	2980.712646	72.041992
746.480042	1231.606079	3471.095215	2994.271484	78.708366
746.800537	1224.826538	3534.370361	2987.492188	76.320938
747.121094	1242.905151	3570.527588	2971.673340	74.271843
747.441528	1163.811279	3498.213135	2930.996338	75.701836
747.761902	1188.669312	3477.874756	2906.138428	75.024681
748.082275	1204.488159	3545.669434	2942.295654	74.227806
748.402588	1324.259033	3602.165283	3023.649414	74.603172
748.722839	1288.101685	3514.031982	3014.610107	77.563461
749.043030	1231.606079	3416.859375	2933.256348	77.869698
749.363159	1204.488159	3382.961914	2949.074951	80.082985
749.683289	1231.606079	3491.433594	2951.334961	76.099998
750.003357	1163.811279	3563.748047	3012.350098	77.024483
750.323303	1209.007813	3385.221680	3048.507568	84.527527
750.643311	1265.503418	3647.361816	2982.972412	72.106262
750.963257	1396.573486	3749.053955	3163.758545	75.120071
751.283142	1292.621338	3545.669434	3003.310791	75.927780
751.602905	1270.023071	3439.457520	2847.382813	72.708336
751.922729	1288.101685	3593.125977	3043.987793	76.176468
752.242432	1283.582031	3486.914063	2858.681885	71.487175
752.562134	1272.282959	3362.623535	2915.177734	78.594597
752.881714	1267.763306	3387.481689	2949.074951	79.317696
753.201355	1270.023071	3428.158447	2946.815186	77.696342
753.520874	1204.488159	3272.230469	2836.083740	78.907112
753.840393	1267.763306	3351.324463	2860.941650	76.464203
754.159851	1272.282959	3385.221680	2930.996338	78.502670
754.479248	1242.905151	3360.363770	2953.594727	80.789757
754.798523	1321.999146	3403.300293	2840.603271	72.964165
755.117859	1310.700073	3450.756836	2872.240967	72.967270
755.437134	1267.763306	3301.608154	3010.090332	85.666664
755.756348	1319.739380	3385.221680	2876.760498	75.382927
756.075500	1292.621338	3324.206299	2777.328125	73.081207
756.394653	1290.361572	3281.269775	2867.721191	79.228142
756.713623	1236.125732	3371.662842	2894.839111	77.671951
757.032654	1283.582031	3344.544922	2885.799805	77.741226
757.351624	1263.243652	3324.206299	2786.367432	73.903511
757.670532	1218.047119	3303.867920	2759.249512	73.889488
757.989441	1175.110352	3247.372314	2734.391357	75.245361
758.308289	1193.188965	3373.922607	2838.343506	75.440414
758.627014	1220.306885	3335.505615	2818.005127	75.534187
758.945801	1245.165039	3333.245850	2860.941650	77.380943
759.264404	1256.464111	3337.765381	2813.485352	74.809990
759.583130	1337.817993	3367.143066	2937.775879	78.841873
759.901611	1303.920532	3364.883301	2917.437500	78.289474
760.220215	1274.542725	3484.654297	2897.099121	73.415138
760.538635	1303.920532	3312.907227	2960.374268	82.452202
760.857117	1197.708618	3240.592773	2820.264893	79.424782
761.175537	1342.337646	3471.095215	2994.271484	77.600845
761.493896	1242.905151	3378.442383	2908.398193	77.989418
761.812134	1263.243652	3362.623535	2869.980957	76.533897
762.130432	1337.817993	3446.237061	2912.917725	74.705254
762.448608	1213.527466	3392.001221	2937.775879	79.149384
762.766785	1360.416260	3459.796143	2894.839111	73.089340
763.084900	1378.494873	3588.606201	3010.090332	73.824127
763.402954	1213.527466	3579.566895	3073.365479	78.605530
763.720947	1222.566772	3694.818115	3188.616699	79.524673
764.038940	1147.992432	4069.949463	3240.592773	71.616394
764.356750	1288.101685	4207.798828	3412.339600	72.755409
764.674683	1195.448853	4140.004395	3523.071289	79.048347
764.992493	1175.110352	4271.074219	3534.370361	76.204376
765.310303	1227.086426	4386.325195	3703.857422	78.397713
765.627930	1168.330933	4225.877441	3552.448975	77.974884
765.945679	1267.763306	4271.074219	3563.748047	76.448456
766.263306	1240.645386	4045.091309	3407.820068	77.276405
766.580872	1193.188965	4015.713623	3303.867920	74.779823
766.898376	1202.228271	3773.912109	3168.278320	76.449913
767.215881	1236.125732	3636.062744	2926.476807	70.433144
767.533325	1199.968506	3532.110596	2996.531494	77.034889
767.850708	1168.330933	3414.599609	2851.902344	74.949692
768.168030	1197.708618	3396.520996	2797.666504	72.764633
768.485352	1199.968506	3272.230469	2763.769287	75.463470
768.802551	1227.086426	3285.789307	2752.469971	74.094398
769.119751	1242.905151	3177.317627	2625.919678	71.495331
769.436890	1290.361572	3120.822021	2711.793213	77.654320
769.753967	1260.983765	3267.710693	2662.076904	69.819824
770.071045	1211.267578	3143.420166	2641.738525	74.035095
770.388062	1281.322266	3100.483398	2723.092285	79.254662
770.704956	1220.306885	3073.365479	2508.408691	69.512199
771.021912	1306.180420	3043.987793	2700.493896	80.234062
771.338684	1218.047119	2964.893799	2564.904297	77.102196
771.655579	1159.291626	2953.594727	2531.006836	76.448357
771.972351	1294.881226	3039.468262	2657.557373	78.108810
772.289063	1238.385498	2942.295654	2573.943604	78.381958
772.605713	1206.747925	2942.295654	2544.565918	77.083328
772.922302	1172.850586	2908.398193	2555.864990	79.687492
773.238831	1267.763306	2906.138428	2553.605225	78.482758
773.555420	1308.440186	3039.468262	2582.982910	73.629234
773.871826	1202.228271	2933.256348	2560.384766	78.459534
774.188293	1263.243652	2928.736572	2555.864990	77.611938
774.504639	1245.165039	2935.516113	2490.330078	73.663101
774.820984	1233.865845	2879.020264	2524.227539	78.434074
775.137207	1211.267578	2946.815186	2524.227539	75.651047
775.453552	1152.512085	2876.760498	2352.480469	69.593704
775.769592	1299.400879	2827.044434	2503.888916	78.846146
776.085815	1224.826538	2822.524658	2442.873535	76.237617
776.401855	1136.693237	2874.500732	2469.991699	76.723022
776.717896	1249.684692	2829.304199	2454.172852	76.251793
777.033875	1281.322266	2804.446045	2408.976318	74.035614
777.349854	1215.787231	2797.666504	2359.260010	72.285721
777.665710	1211.267578	2836.083740	2368.299316	71.210007
777.981567	1321.999146	2851.902344	2476.770996	75.480057
778.297363	1236.125732	2684.675293	2266.607178	71.138847
778.613098	1166.071045	2747.950439	2359.260010	75.428566
778.928772	1240.645386	2747.950439	2363.779785	74.512749
779.244385	1242.905151	2799.926514	2305.024170	68.214798
779.559998	1281.322266	2705.013672	2492.589844	85.079361
779.875488	1188.669312	2759.249512	2418.015625	78.273384
780.191040	1290.361572	2822.524658	2352.480469	69.321533
780.506470	1177.370239	2743.430664	2359.260010	75.468979
780.821899	1206.747925	2786.367432	2408.976318	76.108734
781.137207	1213.527466	2723.092285	2343.441162	74.850296
781.452576	1213.527466	2725.352051	2241.749023	68.011963
781.767822	1272.282959	2775.068359	2309.543701	69.022545
782.083069	1240.645386	2759.249512	2411.236084	77.083336
782.398193	1184.149658	2641.738525	2273.386475	74.728676
782.713379	1301.660645	2705.013672	2347.960938	74.557167
783.028381	1283.582031	2745.690430	2323.102783	71.097382
783.343384	1213.527466	2585.242676	2259.827637	76.276779
783.658386	1283.582031	2693.714600	2295.984863	71.794868
783.973328	1267.763306	2655.297363	2298.244629	74.267097
784.288086	1430.470825	2763.769287	2338.921631	68.135590
784.602966	1283.582031	2540.046143	2241.749023	76.259003
784.917725	1324.259033	2616.880371	2212.371338	68.706299
785.232483	1272.282959	2619.140137	2167.174561	66.442947
785.547119	1263.243652	2596.541992	2300.504395	77.796600
785.861755	1233.865845	2488.070313	2178.473877	75.315315
786.176270	1190.929199	2535.526611	2167.174561	72.605034
786.490845	1195.448853	2533.266846	2244.008789	78.378372
786.805298	1193.188965	2558.124756	2142.316650	69.536438
787.119751	1265.503418	2567.164063	2196.552490	71.527786
787.434143	1218.047119	2517.447998	2182.993408	74.260864
787.748474	1209.007813	2564.904297	2194.292725	72.666679
788.062744	1245.165039	2598.801758	2259.827637	74.958267
788.377014	1265.503418	2614.620605	2255.307861	73.366821
788.691162	1193.188965	2628.179443	2316.323242	78.267715
789.005310	1166.071045	2585.242676	2359.260010	84.076439
789.319397	1229.346191	2646.258057	2352.480469	79.266350
789.633423	1152.512085	2693.714600	2250.788330	71.260994
789.947449	1224.826538	2720.832520	2282.425781	70.694855
790.261414	1227.086426	2639.478760	2244.008789	71.999992
790.575256	1213.527466	2546.825684	2237.229248	76.779655
790.889160	1190.929199	2637.218750	2325.362549	78.437500
791.202881	1211.267578	2569.424072	2237.229248	75.540756
791.516663	1175.110352	2542.306152	2189.772949	74.214874
791.830322	1256.464111	2528.747070	2173.954102	72.113678
792.144043	1224.826538	2492.589844	2137.796875	72.014259
792.457581	1260.983765	2576.203369	2259.827637	75.945023
792.771118	1245.165039	2429.314697	2085.820801	70.992355
793.084656	1324.259033	2549.085449	2250.788330	75.645767
793.398071	1251.944458	2544.565918	2266.607178	78.496506
793.711487	1184.149658	2257.567871	2124.238037	87.578949
794.024841	1213.527466	2372.819092	2144.576416	80.311882
794.338135	1254.204346	2454.172852	2099.379883	70.433144
794.651428	1256.464111	2375.078857	2135.537109	78.585861
794.964600	1285.841919	2492.589844	2259.827637	80.711617
795.277771	1224.826538	2418.015625	2076.781494	71.401505
795.590881	1315.219727	2300.504395	2203.332031	90.137634
795.903931	1428.211060	2531.006836	2257.567871	75.204933
796.216980	1193.188965	2442.873535	2092.600342	71.971069
796.529907	1326.518799	2528.747070	2153.615723	68.796997
796.842834	1175.110352	2465.471924	2099.379883	71.628723
797.155701	1260.983765	2413.495850	2192.032715	80.784309
797.468506	1231.606079	2524.227539	2253.048096	79.020973
797.781250	1321.999146	2519.707764	2173.954102	71.132072
798.093994	1181.889893	2472.251465	2140.056641	74.255676
798.406677	1154.771851	2404.456543	2027.065430	69.801094
798.719238	1202.228271	2454.172852	2092.600342	71.119125
799.031921	1222.566772	2413.495850	2160.395264	78.747635
799.344360	1209.007813	2492.589844	2203.332031	77.464798
799.656860	1236.125732	2393.157471	2126.497803	76.953125
799.969299	1204.488159	2454.172852	2131.017334	74.141037
800.281677	1184.149658	2433.834229	2085.820801	72.151901
800.593933	1209.007813	2370.559082	2097.120117	76.459160
800.906250	1150.252197	2275.646484	2079.041504	82.530121
801.218445	1168.330933	2248.528564	2076.781494	84.100403
801.530640	1195.448853	2314.063477	2045.144043	75.959602
801.842712	1222.566772	2320.843018	2072.261963	77.366257
802.154846	1209.007813	2325.362549	2085.820801	78.542503
802.466797	1220.306885	2219.150635	2045.144043	82.579201
802.778870	1297.140991	2302.764404	2058.702881	75.730324
803.090759	1294.881226	2257.567871	2054.183350	78.873238
803.402649	1247.424805	2155.875488	1938.932129	76.119415
803.714478	1231.606079	2239.489258	1984.128662	74.663673
804.026245	1224.826538	2239.489258	2049.663574	81.291748
804.337952	1179.630005	2189.772949	2049.663574	86.129745
804.649658	1193.188965	2255.307861	2054.183350	81.063843
804.961243	1197.708618	2237.229248	2033.844849	80.434792
805.272888	1276.802612	2225.930176	1959.270508	71.904762
805.584412	1242.905151	2280.166016	2076.781494	80.392151
805.895874	1181.889893	2282.425781	1988.648315	73.305962
806.207336	1231.606079	2153.615723	2045.144043	88.235298
806.518677	1197.708618	2198.812256	1986.388428	78.781036
806.830017	1186.409546	2244.008789	1975.089355	74.572655
807.141357	1206.747925	2289.205322	1954.750854	69.102295
807.452576	1238.385498	2289.205322	1986.388428	71.182793
807.763733	1285.841919	2388.637695	2083.561035	72.336067
808.074890	1105.055664	2162.655029	2038.364502	88.247864
808.385925	1337.817993	2352.480469	2153.615723	80.400894
808.697021	1247.424805	2253.048096	1932.152588	68.089890
809.007935	1333.298340	2332.142090	2002.207275	66.968323
809.318909	1349.117065	2347.960938	2015.766235	66.742081
809.629822	1260.983765	2133.277344	1918.593628	75.388596
809.940674	1168.330933	2162.655029	1911.814209	74.772728
810.251404	1197.708618	2146.836182	1923.113281	76.428574
810.562195	1346.857300	2201.072021	2054.183350	82.804245
810.872864	1222.566772	2155.875488	1905.034668	73.123489
811.183533	1152.512085	2099.379883	1821.421021	70.644386
811.494080	1274.542725	2115.198730	1952.491089	80.645157
811.804626	1218.047119	2085.820801	1900.515015	78.645836
812.115112	1136.693237	2110.678955	1844.019287	72.621811
812.425598	1229.346191	2045.144043	1882.436401	80.055397
812.735962	1220.306885	2004.467041	1850.798828	80.403465
813.046326	1258.723999	2038.364502	1868.877441	78.260872
813.356628	1396.573486	2099.379883	1943.451782	77.813507
813.666870	1297.140991	2101.639648	1866.617554	70.786514
813.976990	1260.983765	2101.639648	1918.593628	78.225807
814.287170	1227.086426	2119.718262	1873.397095	72.405067
814.597290	1285.841919	2081.301270	1898.255249	76.988640
814.907349	1256.464111	2018.026001	1807.862061	72.403564
815.217346	1428.211060	2140.056641	1990.908081	79.047623
815.527283	1276.802612	2063.222656	1873.397095	75.862068
815.837158	1245.165039	2051.923584	1864.357788	76.750687
816.147034	1321.999146	2176.214111	1938.932129	72.222214
816.456787	1206.747925	2090.340576	1907.294556	79.283890
816.766541	1321.999146	2112.938721	1862.097900	68.285713
817.076233	1195.448853	2187.513184	1877.916748	68.792709
817.385925	1251.944458	2133.277344	1871.137207	70.256401
817.695496	1457.588867	2289.205322	2002.207275	65.489136
818.005066	1251.944458	2135.537109	1963.790161	80.562653
818.314514	1229.346191	2176.214111	1893.735596	70.167061
818.623962	1236.125732	2158.135254	1868.877441	68.627457
818.933350	1276.802612	1997.687622	1918.593628	89.028206
819.242737	1306.180420	2210.111328	1968.309814	73.250000
819.552002	1202.228271	2076.781494	1862.097900	75.452194
819.861328	1218.047119	2146.836182	1902.774902	73.722633
820.170471	1166.071045	2203.332031	1952.491089	75.816986
820.479675	1224.826538	2225.930176	2004.467041	77.878098
820.788696	1188.669312	2329.882324	2051.923584	75.643570
821.097839	1245.165039	2411.236084	2164.914795	78.875961
821.406738	1276.802612	2589.762451	2268.866943	75.559380
821.715698	1258.723999	2589.762451	2248.528564	74.363335
822.024597	1294.881226	2808.965820	2542.306152	82.388062
822.333435	1288.101685	3484.654297	2926.476807	74.588470
822.642273	1251.944458	4180.681152	3529.850830	77.777771
822.950989	1236.125732	5267.658203	4327.569824	76.681610
823.259705	1256.464111	5902.669922	4666.543945	73.394936
823.568359	1285.841919	6650.672852	5274.437500	74.347092
823.876953	1358.156372	7159.133789	5590.813477	72.964554
824.185486	1233.865845	7190.771484	5719.623535	75.303490
824.494019	1209.007813	7016.764648	5516.239258	74.163429
824.802429	1147.992432	6336.556641	5190.824219	77.918121
825.110840	1195.448853	5590.813477	4503.836426	75.269920
825.419189	1240.645386	5215.682129	4178.421387	73.905632
825.727478	1270.023071	4732.079102	3855.265869	74.673622
826.035767	1238.385498	4402.144043	3622.503662	75.357147
826.343933	1238.385498	4250.735840	3475.614990	74.268570
826.652100	1220.306885	3979.556396	3222.514160	72.563477
826.960144	1213.527466	3776.171875	3120.822021	74.426811
827.268250	1202.228271	3724.195801	3166.018555	77.867386
827.576233	1367.195679	3920.801025	3227.033936	72.831856
827.884155	1227.086426	3893.682861	3098.223633	70.169495
828.192017	1263.243652	3880.124023	3285.789307	77.288429
828.499878	1218.047119	3938.879639	3292.568848	76.245842
828.807678	1161.551392	3871.084717	3256.411621	77.314438
829.115479	1152.512085	3925.320557	3229.293701	74.898125
829.423096	1258.723999	3697.077881	3102.743408	75.625580
829.730835	1209.007813	3407.820068	2865.461426	75.334015
830.038330	1211.267578	3267.710693	2680.155518	71.428574
830.345947	1247.424805	3100.483398	2700.493896	78.414635
830.653442	1222.566772	2854.162354	2488.070313	77.562332
830.960876	1218.047119	2741.170898	2436.094238	79.970329
831.268250	1249.684692	2632.699219	2293.725098	75.490196
831.575623	1202.228271	2499.369385	2133.277344	71.777008
831.882874	1163.811279	2420.275391	2051.923584	70.683456
832.190125	1233.865845	2399.937012	2022.545654	67.635651
832.497314	1335.558105	2298.244629	2070.002197	76.291092
832.804504	1378.494873	2250.788330	2027.065430	74.352333
833.111572	1147.992432	2117.458496	1943.451782	82.051285
833.418640	1227.086426	2187.513184	1914.073975	71.529404
833.725586	1285.841919	2377.338623	2024.805542	67.701866
834.032532	1215.787231	2451.912842	2124.238037	73.491791
834.339417	1274.542725	2639.478760	2225.930176	69.701981
834.646301	1270.023071	2729.871826	2384.118164	76.315788
834.953003	1283.582031	2910.657959	2408.976318	69.166672
835.259827	1245.165039	2917.437500	2476.770996	73.648643
835.566467	1290.361572	2894.839111	2531.006836	77.323944
835.873108	1256.464111	2935.516113	2415.755615	69.044411
836.179688	1256.464111	2750.210205	2363.779785	74.130112
836.486267	1202.228271	2718.572510	2298.244629	72.280182
836.792664	1231.606079	2512.928223	2234.969482	78.306877
837.099121	1267.763306	2488.070313	2173.954102	74.259247
837.405518	1283.582031	2515.188232	2203.332031	74.678902
837.711792	1254.204346	2368.299316	2038.364502	70.385399
838.018127	1177.370239	2198.812256	1979.609009	78.539825
838.324341	1292.621338	2162.655029	1947.971436	75.324684
838.630554	1281.322266	2067.742188	1773.964722	62.643688
838.936646	1227.086426	2006.726929	1758.145874	68.115936
839.242737	1283.582031	1997.687622	1866.617554	81.645561
839.548767	1263.243652	1984.128662	1787.523682	72.727272
839.854797	1279.062378	2049.663574	1769.445068	63.636379
840.160645	1236.125732	1932.152588	1753.626221	74.350647
840.466553	1166.071045	1977.349121	1731.027954	69.637886
840.772400	1157.031738	1846.279175	1740.067261	84.590164
841.078186	1177.370239	1966.050049	1785.263794	77.077354
841.383850	1177.370239	1902.774902	1721.988647	75.077873
841.689575	1249.684692	1929.892822	1819.161255	83.720932
841.995178	1220.306885	2002.207275	1783.004028	71.965324
842.300781	1242.905151	2002.207275	1785.263794	71.428566
842.606262	1294.881226	1968.309814	1746.846802	67.114105
842.911743	1279.062378	1927.632935	1679.051880	61.672474
843.217163	1242.905151	1710.689453	1676.792114	92.753639
843.522583	1247.424805	1857.578247	1670.012573	69.259262
843.827881	1240.645386	1810.121948	1584.139160	60.317455
844.133179	1263.243652	1855.318481	1649.674194	65.267181
844.438354	1265.503418	1783.004028	1611.257080	66.812225
844.743530	1218.047119	1721.988647	1566.060547	69.058296
845.048645	1279.062378	1780.744141	1638.375000	71.621620
845.353760	1227.086426	1658.713501	1529.903320	70.157066
845.658752	1283.582031	1794.303101	1672.272461	76.106209
845.963745	1294.881226	1735.547607	1746.846802	102.564117
846.268555	1202.228271	1622.556274	1611.257080	97.311813
846.573486	1184.149658	1557.021240	1557.021240	100.000000
846.878296	1353.636719	1758.145874	1608.997314	63.128510
847.183044	1206.747925	1685.831421	1511.824707	63.679253
847.487732	1229.346191	1577.359619	1563.800659	96.103897
847.792419	1290.361572	1731.027954	1568.320313	63.076912
848.097046	1249.684692	1633.855347	1620.296387	96.470589
848.401611	1240.645386	1618.036621	1538.942627	79.041908
848.706055	1202.228271	1658.713501	1529.903320	71.782181
849.010559	1218.047119	1611.257080	1455.328979	60.344826
849.314941	1229.346191	1649.674194	1516.344360	68.279572
849.619324	1199.968506	1568.320313	1518.604126	86.503067
849.923584	1188.669312	1520.864014	1416.911865	68.707466
850.227844	1197.708618	1541.202393	1462.108521	76.973709
850.532043	1163.811279	1550.241699	1518.604126	91.812866
850.836243	1220.306885	1588.658813	1448.549561	61.963207
851.140320	1249.684692	1579.619507	1466.628174	65.753441
851.444397	1247.424805	1679.051880	1473.407593	52.356026
851.748352	1256.464111	1599.958008	1448.549561	55.921066
852.052307	1283.582031	1563.800659	1593.178467	110.483887
852.356140	1242.905151	1608.997314	1385.274292	38.888878
852.660095	1260.983765	1627.075928	1586.398926	88.888863
852.963806	1308.440186	1656.453613	1518.604126	60.389606
853.267578	1507.305054	1789.783447	1663.233154	55.200008
853.571228	1256.464111	1577.359619	1529.903320	85.211288
853.874939	1209.007813	1647.414307	1486.966553	63.402058
854.178467	1227.086426	1489.226440	1529.903320	115.517235
854.482056	1231.606079	1579.619507	1473.407593	69.480515
854.785461	1254.204346	1595.438354	1491.486206	69.536407
855.088989	1245.165039	1514.084473	1414.652100	63.025219
855.392273	1229.346191	1536.682739	1505.045166	89.705887
855.695679	1229.346191	1523.123779	1523.123779	100.000000
855.998901	1367.195679	1712.949341	1550.241699	52.941166
856.302185	1222.566772	1516.344360	1514.084473	99.230751
856.605286	1290.361572	1636.115234	1527.643433	68.627434
856.908508	1211.267578	1640.634888	1477.927246	62.105255
857.211548	1215.787231	1606.737427	1412.392212	50.289009
857.514587	1220.306885	1505.045166	1398.833252	62.698406
857.817566	1143.472778	1477.927246	1421.431519	83.108093
858.120483	1229.346191	1590.918701	1502.785400	75.625000
858.423340	1294.881226	1667.752808	1520.864014	60.606064
858.726196	1179.630005	1464.368286	1518.604126	119.047607
859.028931	1236.125732	1561.540894	1559.281006	99.305534
859.331665	1170.590698	1561.540894	1444.029785	69.942177
859.634277	1211.267578	1597.698120	1545.722046	86.549698
859.936890	1188.669312	1559.281006	1446.289673	69.512207
860.239441	1263.243652	1538.942627	1557.021240	106.557373
860.541992	1231.606079	1538.942627	1588.658813	116.176468
860.844421	1218.047119	1507.305054	1493.746094	95.312500
861.146912	1186.409546	1507.305054	1486.966553	93.661957
861.449219	1166.071045	1471.147827	1378.494873	69.629631
861.751526	1299.400879	1588.658813	1491.486206	66.406242
862.053772	1344.597412	1670.012573	1484.706787	43.055576
862.355957	1358.156372	1606.737427	1509.564819	60.909084
862.658081	1218.047119	1525.383667	1561.540894	111.764702
862.960266	1197.708618	1498.265747	1462.108521	87.969933
863.262207	1195.448853	1486.966553	1475.667480	96.124054
863.564331	1285.841919	1529.903320	1516.344360	94.444450
863.866211	1206.747925	1622.556274	1439.510132	55.978241
864.168091	1195.448853	1482.446899	1383.014526	65.354340
864.469910	1256.464111	1428.211060	1369.455566	65.789497
864.771729	1260.983765	1423.691406	1496.005859	144.444412
865.073425	1242.905151	1498.265747	1480.187134	92.920357
865.375122	1159.291626	1509.564819	1441.770020	80.645164
865.676819	1195.448853	1496.005859	1387.534180	63.909782
865.978333	1166.071045	1468.887939	1362.676025	64.925369
866.279907	1331.038452	1602.217773	1486.966553	57.499996
866.581360	1170.590698	1566.060547	1502.785400	84.000008
866.882874	1181.889893	1477.927246	1491.486206	104.580154
867.184143	1181.889893	1532.163086	1398.833252	61.935474
867.485535	1141.212891	1523.123779	1410.132446	70.414215
867.786743	1249.684692	1570.580200	1491.486206	75.352104
868.088013	1378.494873	1590.918701	1505.045166	59.574432
868.389160	1249.684692	1649.674194	1446.289673	49.152534
868.690308	1195.448853	1496.005859	1459.848633	87.969925
868.991333	1247.424805	1518.604126	1385.274292	50.833332
869.292358	1229.346191	1618.036621	1453.069214	57.558151
869.593323	1346.857300	1660.973267	1688.091187	108.633095
869.894287	1177.370239	1552.501587	1471.147827	78.313263
870.195068	1251.944458	1577.359619	1509.564819	79.166672
870.495911	1290.361572	1566.060547	1448.549561	57.377068
870.796692	1260.983765	1468.887939	1464.368286	97.826088
871.097412	1211.267578	1444.029785	1419.171753	89.320419
871.398010	1242.905151	1518.604126	1507.305054	95.901665
871.698669	1213.527466	1383.014526	1430.470825	127.999954
871.999207	1267.763306	1507.305054	1369.455566	42.452835
872.299683	1256.464111	1489.226440	1387.534180	56.310688
872.600159	1238.385498	1532.163086	1419.171753	61.538479
872.900574	1209.007813	1477.927246	1376.234985	62.184860
873.200867	1220.306885	1500.525513	1462.108521	86.290352
873.501160	1276.802612	1514.084473	1475.667480	83.809555
873.801392	1204.488159	1509.564819	1387.534180	60.000008
874.101624	1231.606079	1527.643433	1511.824707	94.656509
874.401733	1297.140991	1559.281006	1416.911865	45.689655
874.701843	1245.165039	1518.604126	1475.667480	84.297546
875.001831	1324.259033	1545.722046	1529.903320	92.857170
875.301819	1213.527466	1511.824707	1486.966553	91.666649
875.601746	1272.282959	1586.398926	1493.746094	70.503624
875.901672	1281.322266	1577.359619	1457.588867	59.542015
876.201477	1267.763306	1444.029785	1376.234985	61.538460
876.501282	1202.228271	1498.265747	1471.147827	90.839699
876.800964	1184.149658	1516.344360	1480.187134	89.115654
877.100647	1147.992432	1547.981934	1493.746094	86.440681
877.400208	1181.889893	1559.281006	1434.990479	67.065857
877.699829	1337.817993	1674.532227	1514.084473	52.348984
877.999329	1218.047119	1532.163086	1453.069214	74.820168
878.298767	1184.149658	1493.746094	1383.014526	64.233582
878.598206	1270.023071	1577.359619	1496.005859	73.529419
878.897583	1204.488159	1579.619507	1414.652100	56.024094
879.196838	1227.086426	1507.305054	1432.730713	73.387085
879.496155	1163.811279	1577.359619	1493.746094	79.781441
879.795288	1245.165039	1563.800659	1543.462280	93.617043
880.094482	1238.385498	1588.658813	1538.942627	85.806458
880.393555	1161.551392	1640.634888	1434.990479	57.075455
880.692627	1220.306885	1613.516968	1450.809326	58.620686
880.991577	1254.204346	1692.610840	1543.462280	65.979393
881.290588	1267.763306	1767.185181	1613.516968	69.230782
881.589355	1157.031738	1947.971436	1731.027954	72.571426
881.888306	1213.527466	2180.733643	1911.814209	72.196266
882.187012	1297.140991	2305.024170	2094.860107	79.147972
882.485840	1297.140991	2691.454590	2277.906250	70.340363
882.784424	1265.503418	2901.618652	2540.046143	77.900551
883.083069	1265.503418	3245.112549	2747.950439	74.885841
883.381592	1220.306885	3450.756836	2885.799805	74.670715
883.680176	1186.409546	3541.149902	2890.319580	72.360847
883.978638	1190.929199	3590.865967	2980.712646	74.576279
884.277039	1222.566772	3364.883301	2847.382813	75.843887
884.575378	1249.684692	3380.702148	2736.651123	69.777298
884.873779	1152.512085	3093.704102	2576.203369	73.341087
885.171997	1227.086426	3123.081787	2510.668457	67.699638
885.470276	1256.464111	3118.562012	2603.321289	72.330093
885.768311	1206.747925	2836.083740	2436.094238	75.450760
886.066528	1159.291626	2634.958984	2282.425781	76.110252
886.364502	1143.472778	2528.747070	2169.434570	74.061996
886.662537	1258.723999	2445.133545	2072.261963	68.571426
886.960510	1236.125732	2266.607178	2058.702881	79.824547
887.258362	1249.684692	2219.150635	1909.554321	68.065269
887.556213	1211.267578	1961.530396	1755.886108	72.590370
887.854004	1136.693237	1927.632935	1674.532227	68.000000
888.151733	1242.905151	1891.475708	1801.082642	86.062721
888.449402	1315.219727	1882.436401	1645.154541	58.167332
888.747009	1238.385498	1733.287720	1627.075928	78.538834
889.044617	1132.173584	1697.130493	1563.800659	76.400002
889.342163	1195.448853	1577.359619	1536.682739	89.349113
889.639648	1238.385498	1613.516968	1534.422974	78.915657
889.937012	1141.212891	1536.682739	1480.187134	85.714310
890.234436	1238.385498	1651.933960	1523.123779	68.852455
890.531738	1254.204346	1552.501587	1570.580200	106.060600
890.829041	1199.968506	1579.619507	1394.313599	51.190460
891.126221	1247.424805	1581.879272	1419.171753	51.351368
891.423401	1254.204346	1534.422974	1441.770020	66.935478
891.720459	1236.125732	1509.564819	1462.108521	82.644653
892.017578	1288.101685	1588.658813	1448.549561	53.383488
892.314514	1258.723999	1593.178467	1376.234985	35.135124
892.611511	1281.322266	1520.864014	1505.045166	93.396202
>>>>>End Processed Spectral Data<<<<<
